Time/us,Voltage/V
-562.0,-0.00758514
-561.52,-0.00771332
-561.04,-0.00762787
-560.5600000000001,-0.00739288
-560.0799999999999,-0.00745697
-559.6,-0.00771332
-559.12,-0.00792694
-558.6400000000001,-0.00754242
-558.16,-0.00775604
-557.6800000000001,-0.0073288
-557.2,-0.00737152
-556.7199999999999,-0.0073288
-556.24,-0.00758514
-555.76,-0.00747833
-555.28,-0.00769196
-554.8,-0.00728607
-554.32,-0.0073288
-553.84,-0.00764923
-553.36,-0.00739288
-552.88,-0.00760651
-552.4,-0.00758514
-551.92,-0.0077774
-551.4399999999999,-0.00767059
-550.96,-0.00801239
-550.48,-0.00754242
-550.0,-0.0071579
-549.52,-0.00735016
-549.0400000000001,-0.00756378
-548.56,-0.00767059
-548.08,-0.00739288
-547.6,-0.00758514
-547.1199999999999,-0.00771332
-546.64,-0.00769196
-546.16,-0.00822601
-545.6800000000001,-0.00792694
-545.1999999999999,-0.00758514
-544.72,-0.00771332
-544.24,-0.00792694
-543.76,-0.00826874
-543.28,-0.00786285
-542.8000000000001,-0.00758514
-542.32,-0.00852509
-541.8399999999999,-0.00807648
-541.36,-0.00767059
-540.88,-0.00799103
-540.4,-0.0082901
-539.92,-0.00820465
-539.44,-0.00782013
-538.96,-0.00790558
-538.48,-0.00790558
-538.0,-0.00805511
-537.52,-0.00822601
-537.04,-0.00784149
-536.56,-0.00771332
-536.08,-0.00769196
-535.5999999999999,-0.00769196
-535.12,-0.00779877
-534.64,-0.00762787
-534.1600000000001,-0.00818329
-533.68,-0.0081192
-533.2,-0.00739288
-532.72,-0.00799103
-532.24,-0.0077774
-531.76,-0.00816193
-531.28,-0.00747833
-530.8000000000001,-0.00711517
-530.3199999999999,-0.00790558
-529.84,-0.00790558
-529.36,-0.00762787
-528.88,-0.00722198
-528.4,-0.00784149
-527.9200000000001,-0.0077774
-527.44,-0.00796967
-526.9599999999999,-0.00769196
-526.48,-0.00790558
-526.0,-0.00782013
-525.52,-0.00752106
-525.04,-0.00741425
-524.5600000000001,-0.00782013
-524.0799999999999,-0.00796967
-523.6,-0.00790558
-523.12,-0.00790558
-522.6400000000001,-0.00779877
-522.16,-0.00782013
-521.68,-0.00805511
-521.2,-0.00790558
-520.7199999999999,-0.00773468
-520.24,-0.00722198
-519.76,-0.00775604
-519.2800000000001,-0.00749969
-518.8,-0.00764923
-518.32,-0.00769196
-517.84,-0.00747833
-517.36,-0.00758514
-516.88,-0.00782013
-516.4,-0.00782013
-515.92,-0.0077774
-515.4399999999999,-0.00764923
-514.96,-0.00764923
-514.48,-0.00775604
-514.0,-0.00758514
-513.52,-0.00807648
-513.0400000000001,-0.00784149
-512.56,-0.0079483
-512.0799999999999,-0.00788422
-511.6,-0.00818329
-511.12,-0.00758514
-510.64,-0.00786285
-510.15999999999997,-0.00764923
-509.68,-0.00814056
-509.19999999999993,-0.00799103
-508.71999999999997,-0.00749969
-508.24,-0.00769196
-507.76000000000005,-0.00767059
-507.28,-0.00809784
-506.8,-0.00756378
-506.32000000000005,-0.00743561
-505.84,-0.00760651
-505.36,-0.00792694
-504.88000000000005,-0.00749969
-504.4,-0.00756378
-503.91999999999996,-0.00771332
-503.44,-0.00790558
-502.96000000000004,-0.0073288
-502.47999999999996,-0.00737152
-502.0,-0.00749969
-501.52000000000004,-0.00773468
-501.03999999999996,-0.0077774
-500.56,-0.00754242
-500.08000000000004,-0.00790558
-499.6,-0.0077774
-499.11999999999995,-0.0077774
-498.64,-0.00747833
-498.16,-0.00747833
-497.67999999999995,-0.00758514
-497.2,-0.00762787
-496.72,-0.00758514
-496.23999999999995,-0.00720062
-495.76,-0.00762787
-495.28000000000003,-0.00782013
-494.80000000000007,-0.00803375
-494.31999999999994,-0.00803375
-493.84,-0.00773468
-493.36,-0.00756378
-492.87999999999994,-0.00803375
-492.4,-0.0079483
-491.92,-0.00769196
-491.44000000000005,-0.00739288
-490.96,-0.00737152
-490.48,-0.00769196
-490.00000000000006,-0.00756378
-489.52,-0.00735016
-489.03999999999996,-0.00762787
-488.56,-0.0073288
-488.08000000000004,-0.00764923
-487.59999999999997,-0.00752106
-487.12,-0.00764923
-486.64000000000004,-0.00713654
-486.16,-0.00762787
-485.68,-0.00758514
-485.20000000000005,-0.00752106
-484.72,-0.00762787
-484.23999999999995,-0.00790558
-483.76,-0.00773468
-483.28,-0.00767059
-482.8,-0.00773468
-482.32,-0.00779877
-481.84,-0.00771332
-481.36,-0.00803375
-480.88,-0.00801239
-480.40000000000003,-0.00782013
-479.92,-0.00790558
-479.44,-0.00730743
-478.96,-0.00784149
-478.47999999999996,-0.00796967
-478.0,-0.00752106
-477.52,-0.00764923
-477.04,-0.00771332
-476.56,-0.0077774
-476.08,-0.00752106
-475.6,-0.00786285
-475.12,-0.00775604
-474.64000000000004,-0.00769196
-474.15999999999997,-0.00722198
-473.68,-0.00790558
-473.2,-0.00767059
-472.71999999999997,-0.00722198
-472.24,-0.00754242
-471.76,-0.00756378
-471.28000000000003,-0.00796967
-470.8,-0.00837555
-470.32,-0.00773468
-469.84000000000003,-0.00764923
-469.36,-0.00786285
-468.88,-0.00786285
-468.4,-0.0073288
-467.91999999999996,-0.00741425
-467.44,-0.00779877
-466.96,-0.00796967
-466.48,-0.00760651
-466.0,-0.00758514
-465.52000000000004,-0.00801239
-465.04,-0.00816193
-464.56,-0.00760651
-464.08,-0.00767059
-463.59999999999997,-0.00788422
-463.12,-0.00788422
-462.64,-0.00764923
-462.15999999999997,-0.00737152
-461.68,-0.00771332
-461.2,-0.00779877
-460.72,-0.00790558
-460.24,-0.00779877
-459.76000000000005,-0.00771332
-459.28000000000003,-0.0079483
-458.79999999999995,-0.00779877
-458.32,-0.00724335
-457.84,-0.00754242
-457.36,-0.0077774
-456.88,-0.00771332
-456.4,-0.00760651
-455.92,-0.00762787
-455.44,-0.00786285
-454.96000000000004,-0.00773468
-454.48,-0.00769196
-454.0,-0.00790558
-453.52,-0.00807648
-453.03999999999996,-0.00790558
-452.56,-0.00769196
-452.08,-0.00779877
-451.6,-0.00745697
-451.12,-0.00756378
-450.64,-0.00752106
-450.16,-0.00767059
-449.68,-0.0077774
-449.2,-0.00773468
-448.71999999999997,-0.00764923
-448.24,-0.00758514
-447.76,-0.00760651
-447.28,-0.00754242
-446.8,-0.00764923
-446.32,-0.00758514
-445.84000000000003,-0.00771332
-445.36,-0.00762787
-444.88,-0.00747833
-444.40000000000003,-0.00741425
-443.91999999999996,-0.00786285
-443.44,-0.00784149
-442.96,-0.00760651
-442.48,-0.00796967
-442.0,-0.00786285
-441.52,-0.00779877
-441.04,-0.00809784
-440.56,-0.00801239
-440.08000000000004,-0.00749969
-439.6,-0.00771332
-439.12,-0.00792694
-438.64,-0.00831146
-438.15999999999997,-0.00771332
-437.68,-0.00752106
-437.2,-0.00773468
-436.71999999999997,-0.00805511
-436.24,-0.00769196
-435.76,-0.00745697
-435.28000000000003,-0.00784149
-434.8,-0.00839691
-434.32000000000005,-0.00752106
-433.84,-0.00769196
-433.35999999999996,-0.00807648
-432.88,-0.00833282
-432.4,-0.00861053
-431.92,-0.00799103
-431.44,-0.00807648
-430.96,-0.0081192
-430.48,-0.00807648
-430.0,-0.0077774
-429.52000000000004,-0.00784149
-429.04,-0.0077774
-428.56,-0.00801239
-428.08,-0.00752106
-427.59999999999997,-0.00762787
-427.12,-0.00803375
-426.64,-0.00790558
-426.16,-0.00799103
-425.68,-0.00796967
-425.2,-0.00792694
-424.72,-0.0077774
-424.24,-0.00771332
-423.76,-0.00771332
-423.28,-0.00749969
-422.8,-0.00754242
-422.32,-0.00775604
-421.84,-0.0079483
-421.36,-0.00786285
-420.88,-0.00792694
-420.40000000000003,-0.00760651
-419.92,-0.00737152
-419.44,-0.00786285
-418.96000000000004,-0.0077774
-418.47999999999996,-0.00784149
-418.0,-0.00782013
-417.52,-0.00769196
-417.04,-0.00801239
-416.56,-0.00782013
-416.08,-0.00801239
-415.6,-0.00826874
-415.12,-0.00824738
-414.64000000000004,-0.00790558
-414.16,-0.00816193
-413.67999999999995,-0.00796967
-413.2,-0.0079483
-412.71999999999997,-0.00756378
-412.24,-0.00754242
-411.76,-0.00747833
-411.28,-0.00788422
-410.8,-0.00775604
-410.32,-0.00773468
-409.84000000000003,-0.00739288
-409.36,-0.00743561
-408.88,-0.00773468
-408.4,-0.00799103
-407.91999999999996,-0.00773468
-407.44,-0.00779877
-406.96,-0.00788422
-406.48,-0.00788422
-406.0,-0.00764923
-405.52,-0.00796967
-405.04,-0.00754242
-404.56,-0.00788422
-404.08000000000004,-0.00771332
-403.59999999999997,-0.00745697
-403.12,-0.0079483
-402.64,-0.00788422
-402.15999999999997,-0.00779877
-401.68,-0.00773468
-401.2,-0.00767059
-400.72,-0.00735016
-400.24,-0.00739288
-399.76,-0.00771332
-399.28000000000003,-0.00771332
-398.8,-0.00758514
-398.32,-0.00771332
-397.84,-0.00752106
-397.36,-0.0077774
-396.88,-0.0081192
-396.4,-0.00779877
-395.92,-0.008461
-395.44,-0.00726471
-394.96000000000004,-0.00771332
-394.48,-0.00799103
-394.0,-0.00796967
-393.52,-0.00796967
-393.03999999999996,-0.0077774
-392.56,-0.00767059
-392.08,-0.0073288
-391.6,-0.00773468
-391.12,-0.00764923
-390.64,-0.00769196
-390.16,-0.00752106
-389.68,-0.00775604
-389.20000000000005,-0.00796967
-388.72,-0.00809784
-388.23999999999995,-0.00790558
-387.76,-0.00786285
-387.28,-0.00796967
-386.8,-0.00792694
-386.32,-0.00796967
-385.84,-0.00760651
-385.36,-0.00771332
-384.88,-0.00752106
-384.40000000000003,-0.00758514
-383.92,-0.00741425
-383.44,-0.00803375
-382.96,-0.00767059
-382.47999999999996,-0.00779877
-382.0,-0.00809784
-381.52,-0.00799103
-381.04,-0.00792694
-380.56,-0.00799103
-380.08,-0.00805511
-379.6,-0.00788422
-379.12,-0.00784149
-378.64000000000004,-0.00773468
-378.15999999999997,-0.00752106
-377.68,-0.00788422
-377.2,-0.00816193
-376.71999999999997,-0.0082901
-376.24,-0.00796967
-375.76,-0.00788422
-375.28000000000003,-0.00784149
-374.8,-0.00784149
-374.32,-0.00749969
-373.84000000000003,-0.00758514
-373.35999999999996,-0.00775604
-372.88,-0.0077774
-372.4,-0.00790558
-371.92,-0.00803375
-371.44,-0.00779877
-370.96,-0.00758514
-370.48,-0.00749969
-370.0,-0.00737152
-369.52000000000004,-0.00747833
-369.04,-0.00764923
-368.56,-0.0079483
-368.08,-0.0077774
-367.59999999999997,-0.00720062
-367.12,-0.00747833
-366.64,-0.00788422
-366.16,-0.00786285
-365.68,-0.0081192
-365.2,-0.00764923
-364.72,-0.00749969
-364.24,-0.0079483
-363.76000000000005,-0.00807648
-363.28,-0.00775604
-362.79999999999995,-0.00775604
-362.32,-0.00782013
-361.84,-0.00820465
-361.36,-0.00771332
-360.88,-0.00758514
-360.40000000000003,-0.00775604
-359.92,-0.00833282
-359.44,-0.00754242
-358.96000000000004,-0.00764923
-358.48,-0.00786285
-358.0,-0.00788422
-357.52,-0.00758514
-357.03999999999996,-0.00754242
-356.56,-0.00771332
-356.08,-0.0077774
-355.6,-0.0077774
-355.12,-0.00745697
-354.64,-0.0081192
-354.16,-0.0079483
-353.68,-0.00771332
-353.2,-0.00796967
-352.71999999999997,-0.00773468
-352.24,-0.00767059
-351.76,-0.0079483
-351.28,-0.00803375
-350.8,-0.00796967
-350.32,-0.00739288
-349.84000000000003,-0.00779877
-349.36,-0.00782013
-348.88,-0.00837555
-348.40000000000003,-0.00801239
-347.91999999999996,-0.00805511
-347.44,-0.00764923
-346.96,-0.00779877
-346.48,-0.00771332
-346.0,-0.00769196
-345.52,-0.00779877
-345.04,-0.00771332
-344.56,-0.00775604
-344.08000000000004,-0.00775604
-343.6,-0.00803375
-343.11999999999995,-0.00784149
-342.64,-0.00758514
-342.15999999999997,-0.0079483
-341.68,-0.00788422
-341.2,-0.00773468
-340.72,-0.00771332
-340.24,-0.00764923
-339.76,-0.00786285
-339.28000000000003,-0.00762787
-338.8,-0.00773468
-338.32,-0.00756378
-337.84,-0.00760651
-337.35999999999996,-0.0081192
-336.88,-0.00728607
-336.4,-0.00760651
-335.92,-0.00779877
-335.44,-0.00818329
-334.96000000000004,-0.00726471
-334.48,-0.00756378
-334.0,-0.00790558
-333.52000000000004,-0.00784149
-333.03999999999996,-0.00724335
-332.56,-0.00743561
-332.08,-0.00743561
-331.59999999999997,-0.00801239
-331.12,-0.00739288
-330.64,-0.00758514
-330.16,-0.00762787
-329.68,-0.00796967
-329.2,-0.00730743
-328.72,-0.00696564
-328.24,-0.0073288
-327.76,-0.00756378
-327.28,-0.00760651
-326.8,-0.00760651
-326.32,-0.00764923
-325.84,-0.00773468
-325.36,-0.00737152
-324.88,-0.00754242
-324.40000000000003,-0.00760651
-323.92,-0.00764923
-323.44,-0.00764923
-322.96,-0.0077774
-322.47999999999996,-0.0077774
-322.0,-0.0077774
-321.52,-0.00745697
-321.04,-0.00773468
-320.56,-0.0077774
-320.08,-0.0081192
-319.6,-0.00796967
-319.12,-0.00779877
-318.64000000000004,-0.00775604
-318.16,-0.0077774
-317.67999999999995,-0.00722198
-317.2,-0.00760651
-316.71999999999997,-0.00796967
-316.24,-0.00782013
-315.76,-0.00752106
-315.28000000000003,-0.00782013
-314.8,-0.00760651
-314.32,-0.00737152
-313.84000000000003,-0.00779877
-313.36,-0.00747833
-312.88,-0.00779877
-312.4,-0.00758514
-311.91999999999996,-0.00767059
-311.44,-0.00756378
-310.96,-0.00752106
-310.48,-0.00730743
-310.0,-0.0077774
-309.52000000000004,-0.00803375
-309.04,-0.00801239
-308.56,-0.00752106
-308.08000000000004,-0.00749969
-307.59999999999997,-0.00705109
-307.12,-0.00773468
-306.64,-0.00728607
-306.15999999999997,-0.00773468
-305.68,-0.00760651
-305.2,-0.00773468
-304.72,-0.00726471
-304.24,-0.00758514
-303.76000000000005,-0.0077774
-303.28000000000003,-0.0079483
-302.79999999999995,-0.00758514
-302.32,-0.00769196
-301.84,-0.00790558
-301.36,-0.00784149
-300.88,-0.0077774
-300.4,-0.00726471
-299.92,-0.00788422
-299.44,-0.00784149
-298.96000000000004,-0.00786285
-298.48,-0.00726471
-298.0,-0.00737152
-297.52,-0.00769196
-297.03999999999996,-0.00803375
-296.56,-0.00735016
-296.08,-0.00760651
-295.6,-0.00749969
-295.12,-0.00784149
-294.64,-0.00737152
-294.16,-0.0071579
-293.68,-0.00707245
-293.20000000000005,-0.0073288
-292.71999999999997,-0.00762787
-292.23999999999995,-0.00764923
-291.76,-0.00784149
-291.28,-0.00792694
-290.8,-0.00764923
-290.32,-0.00739288
-289.84000000000003,-0.00739288
-289.36,-0.00784149
-288.88,-0.00769196
-288.40000000000003,-0.00769196
-287.92,-0.00764923
-287.44,-0.00779877
-286.96,-0.00796967
-286.47999999999996,-0.0079483
-286.0,-0.00809784
-285.52,-0.00814056
-285.04,-0.00782013
-284.56,-0.0082901
-284.08000000000004,-0.00814056
-283.6,-0.00801239
-283.12,-0.00790558
-282.64,-0.0077774
-282.15999999999997,-0.00826874
-281.68,-0.00820465
-281.2,-0.00824738
-280.71999999999997,-0.00807648
-280.24,-0.00796967
-279.76,-0.0081192
-279.28000000000003,-0.00775604
-278.8,-0.00801239
-278.32000000000005,-0.0077774
-277.84000000000003,-0.0077774
-277.35999999999996,-0.00773468
-276.88,-0.0077774
-276.4,-0.0073288
-275.92,-0.00752106
-275.44,-0.00752106
-274.96,-0.00801239
-274.48,-0.00773468
-274.0,-0.00790558
-273.52000000000004,-0.00799103
-273.04,-0.00839691
-272.55999999999995,-0.00826874
-272.08,-0.00762787
-271.59999999999997,-0.00764923
-271.12,-0.00792694
-270.64,-0.00764923
-270.16,-0.00739288
-269.68,-0.00805511
-269.2,-0.0081192
-268.72,-0.00796967
-268.24,-0.00758514
-267.76,-0.0077774
-267.28,-0.0077774
-266.79999999999995,-0.00790558
-266.32,-0.00769196
-265.84,-0.00745697
-265.36,-0.00758514
-264.88,-0.00782013
-264.40000000000003,-0.00752106
-263.92,-0.00760651
-263.44,-0.00758514
-262.96000000000004,-0.00784149
-262.47999999999996,-0.0079483
-262.0,-0.00788422
-261.52,-0.00756378
-261.03999999999996,-0.00807648
-260.56,-0.00762787
-260.08,-0.00735016
-259.6,-0.00762787
-259.12,-0.00767059
-258.64000000000004,-0.00775604
-258.16,-0.00752106
-257.68,-0.00752106
-257.2,-0.00752106
-256.71999999999997,-0.00788422
-256.24,-0.00752106
-255.76,-0.00754242
-255.27999999999997,-0.00735016
-254.8,-0.00726471
-254.32,-0.00760651
-253.84,-0.00762787
-253.35999999999999,-0.00764923
-252.88000000000002,-0.00762787
-252.4,-0.00807648
-251.92,-0.00756378
-251.44000000000003,-0.00788422
-250.95999999999998,-0.00756378
-250.48000000000002,-0.00739288
-250.0,-0.00754242
-249.51999999999998,-0.00773468
-249.04000000000002,-0.00764923
-248.55999999999997,-0.00758514
-248.08,-0.00726471
-247.6,-0.00764923
-247.11999999999998,-0.00739288
-246.64000000000001,-0.00739288
-246.15999999999997,-0.00771332
-245.68,-0.00764923
-245.2,-0.00743561
-244.72000000000003,-0.00745697
-244.24,-0.00747833
-243.76,-0.00773468
-243.28,-0.00756378
-242.79999999999998,-0.0077774
-242.32000000000002,-0.00762787
-241.84,-0.00801239
-241.36,-0.00801239
-240.88,-0.00773468
-240.4,-0.00788422
-239.92,-0.0077774
-239.44,-0.00786285
-238.96,-0.00796967
-238.48,-0.00782013
-238.0,-0.00784149
-237.52,-0.00764923
-237.04,-0.00745697
-236.56,-0.00786285
-236.07999999999998,-0.00790558
-235.6,-0.00784149
-235.12,-0.0079483
-234.64000000000001,-0.00773468
-234.16,-0.00771332
-233.68,-0.00756378
-233.2,-0.00809784
-232.72,-0.00803375
-232.24,-0.00775604
-231.76000000000002,-0.00807648
-231.28,-0.00737152
-230.79999999999998,-0.00769196
-230.32,-0.00771332
-229.84,-0.00773468
-229.36,-0.0079483
-228.88000000000002,-0.00788422
-228.39999999999998,-0.00796967
-227.92,-0.00784149
-227.44,-0.00779877
-226.96,-0.00764923
-226.48000000000002,-0.00784149
-226.0,-0.0079483
-225.51999999999998,-0.00796967
-225.04,-0.00786285
-224.56,-0.00773468
-224.08,-0.00752106
-223.6,-0.00764923
-223.12,-0.00752106
-222.64,-0.00790558
-222.16,-0.00782013
-221.68,-0.00764923
-221.20000000000002,-0.00741425
-220.72,-0.0077774
-220.24,-0.0079483
-219.76,-0.00764923
-219.28,-0.00758514
-218.8,-0.00752106
-218.32,-0.00764923
-217.84,-0.00773468
-217.35999999999999,-0.00756378
-216.88,-0.00764923
-216.4,-0.00754242
-215.92,-0.00754242
-215.44,-0.00754242
-214.96,-0.00790558
-214.48,-0.00760651
-214.0,-0.00764923
-213.52,-0.00784149
-213.04,-0.00784149
-212.56,-0.00764923
-212.08,-0.00784149
-211.6,-0.00784149
-211.12,-0.00760651
-210.64,-0.00782013
-210.16,-0.0079483
-209.68,-0.00820465
-209.20000000000002,-0.00807648
-208.72,-0.00773468
-208.23999999999998,-0.00801239
-207.76,-0.00809784
-207.28,-0.00745697
-206.8,-0.00792694
-206.32000000000002,-0.00767059
-205.83999999999997,-0.00779877
-205.35999999999999,-0.00767059
-204.88,-0.00764923
-204.4,-0.0079483
-203.92000000000002,-0.00769196
-203.44,-0.00730743
-202.95999999999998,-0.00764923
-202.48,-0.00760651
-202.0,-0.00726471
-201.52,-0.00754242
-201.04000000000002,-0.00764923
-200.56,-0.0077774
-200.07999999999998,-0.0081192
-199.6,-0.0079483
-199.12,-0.00796967
-198.64000000000001,-0.00764923
-198.16,-0.00773468
-197.68,-0.00754242
-197.2,-0.00796967
-196.72,-0.00824738
-196.24,-0.0077774
-195.76,-0.00775604
-195.28,-0.0077774
-194.8,-0.00752106
-194.32,-0.00790558
-193.84,-0.00739288
-193.36,-0.0077774
-192.88,-0.00760651
-192.4,-0.00758514
-191.92,-0.00758514
-191.44,-0.00767059
-190.96,-0.00807648
-190.48,-0.00762787
-190.0,-0.00796967
-189.52,-0.00799103
-189.04,-0.00796967
-188.56,-0.00771332
-188.07999999999998,-0.00790558
-187.6,-0.00735016
-187.12,-0.00784149
-186.64000000000001,-0.00762787
-186.16,-0.00756378
-185.67999999999998,-0.00779877
-185.2,-0.00790558
-184.72,-0.00801239
-184.24,-0.00764923
-183.76000000000002,-0.00760651
-183.28,-0.00790558
-182.79999999999998,-0.00747833
-182.32,-0.00773468
-181.84,-0.00752106
-181.36,-0.00752106
-180.88000000000002,-0.00739288
-180.39999999999998,-0.0077774
-179.92,-0.00756378
-179.44,-0.00745697
-178.96,-0.00773468
-178.48000000000002,-0.00782013
-178.0,-0.00799103
-177.51999999999998,-0.00790558
-177.04,-0.00758514
-176.56,-0.0077774
-176.08,-0.00784149
-175.6,-0.00792694
-175.12,-0.00764923
-174.64,-0.00747833
-174.16,-0.00786285
-173.68,-0.00803375
-173.20000000000002,-0.00760651
-172.72,-0.00771332
-172.24,-0.00782013
-171.76,-0.00786285
-171.28,-0.00747833
-170.8,-0.00752106
-170.32,-0.00752106
-169.84,-0.00762787
-169.36,-0.00771332
-168.88,-0.00749969
-168.4,-0.00771332
-167.92,-0.00805511
-167.44,-0.00809784
-166.96,-0.00771332
-166.48000000000002,-0.00760651
-166.0,-0.00788422
-165.51999999999998,-0.00782013
-165.04,-0.00758514
-164.56,-0.00758514
-164.08,-0.00773468
-163.6,-0.00735016
-163.12,-0.00784149
-162.64,-0.00749969
-162.16,-0.0077774
-161.68,-0.00784149
-161.20000000000002,-0.00767059
-160.72,-0.0077774
-160.23999999999998,-0.00771332
-159.76,-0.00784149
-159.28,-0.00737152
-158.8,-0.00741425
-158.32000000000002,-0.00754242
-157.83999999999997,-0.00773468
-157.35999999999999,-0.00762787
-156.88,-0.0077774
-156.4,-0.00739288
-155.92000000000002,-0.00784149
-155.44,-0.00818329
-154.95999999999998,-0.00782013
-154.48,-0.00758514
-154.0,-0.00752106
-153.52,-0.00749969
-153.04000000000002,-0.00792694
-152.56,-0.00745697
-152.07999999999998,-0.00741425
-151.6,-0.00771332
-151.12,-0.00764923
-150.64000000000001,-0.00756378
-150.16,-0.0077774
-149.68,-0.00786285
-149.2,-0.00728607
-148.72,-0.00769196
-148.24,-0.00788422
-147.76,-0.00769196
-147.28,-0.00771332
-146.8,-0.00741425
-146.32,-0.00743561
-145.84,-0.00754242
-145.35999999999999,-0.00754242
-144.88,-0.00749969
-144.4,-0.00771332
-143.92000000000002,-0.00771332
-143.44,-0.00790558
-142.96,-0.0077774
-142.48,-0.00782013
-142.0,-0.00762787
-141.52,-0.0073288
-141.04000000000002,-0.00739288
-140.56,-0.00747833
-140.07999999999998,-0.00745697
-139.6,-0.00779877
-139.12,-0.00743561
-138.64000000000001,-0.0077774
-138.16000000000003,-0.00752106
-137.67999999999998,-0.00775604
-137.2,-0.0077774
-136.72,-0.00754242
-136.24,-0.00773468
-135.76000000000002,-0.00782013
-135.27999999999997,-0.00769196
-134.79999999999998,-0.00762787
-134.32,-0.00752106
-133.84,-0.00752106
-133.36,-0.00775604
-132.88,-0.00779877
-132.39999999999998,-0.00758514
-131.92,-0.0073288
-131.44,-0.00790558
-130.96,-0.00764923
-130.48000000000002,-0.00764923
-130.0,-0.00779877
-129.51999999999998,-0.0077774
-129.04,-0.00758514
-128.56,-0.00773468
-128.08,-0.00790558
-127.6,-0.00771332
-127.12,-0.00758514
-126.63999999999999,-0.00762787
-126.16,-0.00790558
-125.67999999999999,-0.00764923
-125.2,-0.00788422
-124.72000000000001,-0.00771332
-124.24000000000001,-0.00743561
-123.75999999999999,-0.00764923
-123.27999999999999,-0.00796967
-122.8,-0.00760651
-122.32000000000001,-0.00739288
-121.84,-0.00743561
-121.36000000000001,-0.00775604
-120.88,-0.00771332
-120.39999999999999,-0.00769196
-119.92,-0.00762787
-119.44,-0.00773468
-118.96,-0.00818329
-118.48,-0.00771332
-118.0,-0.00796967
-117.52,-0.0077774
-117.03999999999999,-0.00764923
-116.56,-0.00814056
-116.08,-0.00822601
-115.6,-0.00788422
-115.12,-0.00796967
-114.64,-0.00790558
-114.16,-0.00820465
-113.68,-0.00801239
-113.19999999999999,-0.00775604
-112.72,-0.00735016
-112.24000000000001,-0.00796967
-111.75999999999999,-0.00779877
-111.28,-0.00803375
-110.8,-0.00782013
-110.32,-0.00771332
-109.84,-0.00764923
-109.36,-0.00758514
-108.88,-0.00779877
-108.4,-0.00771332
-107.92,-0.00788422
-107.44,-0.00782013
-106.96,-0.00754242
-106.48,-0.00739288
-106.0,-0.00771332
-105.52,-0.00782013
-105.04,-0.00820465
-104.56,-0.00730743
-104.08,-0.00741425
-103.60000000000001,-0.00769196
-103.11999999999999,-0.00779877
-102.64,-0.00749969
-102.16000000000001,-0.0077774
-101.67999999999999,-0.00735016
-101.2,-0.00801239
-100.72,-0.00816193
-100.24,-0.00749969
-99.76,-0.00730743
-99.28,-0.00764923
-98.8,-0.00796967
-98.32000000000001,-0.00747833
-97.84,-0.00784149
-97.36,-0.00773468
-96.88,-0.00762787
-96.4,-0.00758514
-95.92,-0.00749969
-95.44,-0.00769196
-94.96,-0.00807648
-94.48,-0.00747833
-94.0,-0.00767059
-93.52,-0.00767059
-93.03999999999999,-0.00784149
-92.56,-0.00745697
-92.08,-0.00767059
-91.6,-0.0077774
-91.12,-0.00775604
-90.64,-0.00730743
-90.16,-0.00739288
-89.68,-0.00767059
-89.19999999999999,-0.00775604
-88.72,-0.00807648
-88.24000000000001,-0.00807648
-87.75999999999999,-0.00752106
-87.28,-0.00801239
-86.8,-0.00796967
-86.32,-0.00758514
-85.84,-0.00769196
-85.36,-0.00747833
-84.88,-0.00743561
-84.4,-0.00769196
-83.92,-0.00786285
-83.44,-0.00792694
-82.96,-0.00767059
-82.48,-0.00752106
-82.0,-0.00786285
-81.52,-0.00805511
-81.04,-0.00773468
-80.56,-0.0077774
-80.08,-0.00792694
-79.60000000000001,-0.00788422
-79.11999999999999,-0.00764923
-78.64,-0.00792694
-78.16000000000001,-0.00792694
-77.67999999999999,-0.00803375
-77.2,-0.00790558
-76.72,-0.00764923
-76.24,-0.0079483
-75.76,-0.00752106
-75.28,-0.00784149
-74.8,-0.00833282
-74.32000000000001,-0.00779877
-73.84,-0.00739288
-73.36,-0.00743561
-72.88,-0.00739288
-72.4,-0.00737152
-71.92,-0.00762787
-71.44,-0.00743561
-70.96000000000001,-0.00790558
-70.48,-0.00756378
-70.0,-0.00771332
-69.52000000000001,-0.00767059
-69.03999999999999,-0.00760651
-68.56,-0.00709381
-68.08000000000001,-0.0073288
-67.6,-0.00745697
-67.12,-0.00747833
-66.63999999999999,-0.00796967
-66.16,-0.00807648
-65.68,-0.00739288
-65.19999999999999,-0.0077774
-64.72,-0.00771332
-64.24000000000001,-0.00752106
-63.75999999999999,-0.00801239
-63.28,-0.00764923
-62.8,-0.00764923
-62.31999999999999,-0.00758514
-61.839999999999996,-0.00722198
-61.36000000000001,-0.00752106
-60.879999999999995,-0.00764923
-60.4,-0.00739288
-59.92,-0.00775604
-59.44,-0.00769196
-58.96,-0.00767059
-58.48,-0.00764923
-58.0,-0.00741425
-57.519999999999996,-0.00784149
-57.04,-0.00784149
-56.56,-0.0077774
-56.08,-0.00762787
-55.599999999999994,-0.00749969
-55.120000000000005,-0.00788422
-54.64,-0.00754242
-54.16,-0.00799103
-53.68,-0.00779877
-53.2,-0.00762787
-52.72,-0.0079483
-52.24,-0.00805511
-51.76,-0.00788422
-51.28,-0.00754242
-50.800000000000004,-0.00745697
-50.32,-0.00754242
-49.839999999999996,-0.00758514
-49.36,-0.00799103
-48.88,-0.00788422
-48.4,-0.00762787
-47.92,-0.00737152
-47.44,-0.00735016
-46.96,-0.00762787
-46.48,-0.00799103
-46.0,-0.00720062
-45.519999999999996,-0.00773468
-45.04,-0.00764923
-44.56,-0.00747833
-44.08,-0.00764923
-43.599999999999994,-0.00713654
-43.120000000000005,-0.00764923
-42.64,-0.00771332
-42.16,-0.00767059
-41.68,-0.00707245
-41.2,-0.00717926
-40.72,-0.00769196
-40.24,-0.00796967
-39.76,-0.00743561
-39.28,-0.00747833
-38.800000000000004,-0.00784149
-38.32,-0.00801239
-37.839999999999996,-0.00739288
-37.36,-0.00741425
-36.88,-0.00786285
-36.4,-0.00796967
-35.92,-0.00741425
-35.44,-0.00758514
-34.96,-0.00782013
-34.480000000000004,-0.00754242
-34.0,-0.00801239
-33.519999999999996,-0.00745697
-33.040000000000006,-0.00796967
-32.56,-0.00764923
-32.08,-0.00773468
-31.599999999999994,-0.00756378
-31.120000000000005,-0.00762787
-30.64,-0.0073288
-30.159999999999997,-0.00758514
-29.680000000000003,-0.00724335
-29.2,-0.00745697
-28.72,-0.00724335
-28.24,-0.0073288
-27.759999999999998,-0.00745697
-27.28,-0.00739288
-26.799999999999997,-0.00767059
-26.32,-0.00764923
-25.84,-0.00762787
-25.36,-0.0077774
-24.88,-0.00752106
-24.400000000000002,-0.00769196
-23.919999999999998,-0.00739288
-23.44,-0.0077774
-22.96,-0.00773468
-22.48,-0.00726471
-22.0,-0.00741425
-21.52,-0.00771332
-21.04,-0.0077774
-20.560000000000002,-0.0077774
-20.08,-0.00784149
-19.6,-0.00730743
-19.12,-0.00792694
-18.64,-0.00807648
-18.16,-0.00771332
-17.68,-0.00754242
-17.2,-0.00754242
-16.72,-0.00749969
-16.240000000000002,-0.00788422
-15.759999999999998,-0.00773468
-15.280000000000001,-0.00779877
-14.799999999999997,-0.00790558
-14.32,-0.00796967
-13.840000000000002,-0.00796967
-13.36,-0.00758514
-12.879999999999999,-0.00760651
-12.399999999999999,-0.0077774
-11.92,-0.00814056
-11.44,-0.0073288
-10.959999999999999,-0.00726471
-10.48,-0.00745697
-10.0,-0.00775604
-9.52,-0.00756378
-9.04,-0.00769196
-8.56,-0.00739288
-8.08,-0.00801239
-7.6,-0.00730743
-7.120000000000001,-0.00735016
-6.640000000000001,-0.00749969
-6.16,-0.00758514
-5.68,-0.00814056
-5.199999999999999,-0.00730743
-4.72,-0.00762787
-4.24,-0.00803375
-3.76,-0.00796967
-3.2800000000000002,-0.00752106
-2.8,-0.00799103
-2.3200000000000003,-0.00764923
-1.8399999999999999,-0.00764923
-1.3599999999999999,-0.00737152
-0.8799999999999999,-0.00749969
-0.3999999999999999,-0.00745697
0.08000000000000007,-0.036445599999999995
0.56,-0.049968
1.04,-0.0100845
1.52,0.112108
2.0000000000000204,0.21165599999999998
2.48,0.29227800000000004
2.96,0.35927
3.44,0.415901
3.92,0.463689
4.4,0.505067
4.88,0.540636
5.359999999999999,0.57238
5.84,0.599489
6.32,0.623735
6.8,0.645012
7.28,0.6643020000000001
7.76,0.6816270000000001
8.24,0.6970930000000001
8.719999999999999,0.710851
9.2,0.724117
9.68,0.735973
10.16,0.747017
10.64,0.757271
11.120000000000001,0.76667
11.6,0.7756850000000001
12.08,0.784081
12.56,0.791557
13.04,0.7990550000000001
13.52,0.805763
14.0,0.8123
14.48,0.818666
14.959999999999999,0.8244549999999999
15.44,0.830202
15.92,0.8359270000000001
16.4,0.841161
16.88,0.84601
17.36,0.851094
17.840000000000003,0.855858
18.32,0.860301
18.799999999999997,0.8646799999999999
19.28,0.869188
19.759999999999998,0.8732469999999999
20.240000000000002,0.877391
20.72,0.881343
21.2,0.885124
21.68,0.888969
22.16,0.8927719999999999
22.64,0.8963180000000001
23.12,0.900142
23.6,0.9032819999999999
24.08,0.9068709999999999
24.560000000000002,0.90999
25.04,0.9131729999999999
25.52,0.9164200000000001
26.0,0.9200520000000001
26.48,0.9230209999999999
26.96,0.926268
27.44,0.9293440000000001
27.919999999999998,0.9322280000000001
28.400000000000002,0.935262
28.88,0.93806
29.36,0.9411790000000001
29.84,0.9439129999999999
30.32,0.9467120000000001
30.799999999999997,0.949681
31.28,0.952693
31.759999999999998,0.955299
32.239999999999995,0.9580549999999999
32.72,0.960426
33.2,0.96346
33.68000000000001,0.965852
34.16,0.968907
34.64,0.9712139999999999
35.120000000000005,0.9739059999999999
35.599999999999994,0.976341
36.08,0.978648
36.56,0.981126
37.040000000000006,0.9838389999999999
37.519999999999996,0.9864879999999999
38.0,0.9886889999999999
38.480000000000004,0.991316
38.96,0.994051
39.44,0.9965069999999999
39.92,0.999007
40.4,1.00108
40.88,1.00347
41.36,1.00571
41.839999999999996,1.00826
42.32,1.01037
42.800000000000004,1.01285
43.28,1.01496
43.76,1.0174
44.24,1.01947
44.72,1.02176
45.2,1.02436
45.68,1.02654
46.16,1.02859
46.64,1.03052
47.120000000000005,1.03244
47.599999999999994,1.0346799999999998
48.08,1.03673
48.56,1.0391
49.04,1.04083
49.519999999999996,1.0431
50.0,1.04513
50.48,1.04735
50.96,1.04912
51.44,1.05122
51.92,1.0528600000000001
52.4,1.05523
52.88,1.05679
53.36,1.0592700000000002
53.839999999999996,1.061
54.32,1.06297
54.800000000000004,1.06485
55.28,1.06651
55.76,1.06863
56.24,1.0701200000000002
56.72,1.07215
57.2,1.0742200000000002
57.68,1.07615
58.16,1.0781100000000001
58.64,1.0800299999999998
59.120000000000005,1.08202
59.599999999999994,1.0840299999999998
60.08,1.0858
60.56,1.08764
61.04,0.28063499999999997
61.519999999999996,0.00965424
62.0,0.00640717
62.48,0.00454865
62.96,0.00236969
63.44,0.00204926
63.92,0.00155792
64.4,0.0011734
64.88,0.000660706
65.36000000000001,0.000767517
65.84,0.000639343
66.32,0.000212097
66.8,-0.000108337
67.28,0.000297546
67.75999999999999,-4.42505e-05
68.24000000000001,-0.000257874
68.72,-0.00068512
69.19999999999999,-0.0005355830000000001
69.68,-0.0007064819999999999
70.16,-0.00068512
70.63999999999999,-0.00106964
71.12,-0.00149689
71.6,-0.00096283
72.08000000000001,-0.00132599
72.56,-0.00164642
73.03999999999999,-0.00209503
73.52000000000001,-0.00166779
74.0,-0.00198822
74.48,-0.00233002
74.96000000000001,-0.00252228
75.44,-0.00215912
75.92,-0.0023941
76.4,-0.00254364
76.88,-0.00318451
77.36,-0.00277863
77.84,-0.00258636
78.32000000000001,-0.0029068
78.8,-0.00316315
79.28,-0.00331268
79.76,-0.00288544
80.24,-0.00314178
80.72,-0.00320587
81.2,-0.00339813
81.67999999999999,-0.00359039
82.16000000000001,-0.00356903
82.64,-0.00356903
83.11999999999999,-0.00380402
83.60000000000001,-0.0036972
84.08,-0.00401764
84.56,-0.00425262
85.04,-0.00412445
85.52,-0.0038681
86.0,-0.00450897
86.48,-0.00440216
86.96,-0.00461578
87.44,-0.00423126
87.92,-0.00448761
88.4,-0.00474396
88.88,-0.00485077
89.36,-0.00495758
89.84,-0.00489349
90.32,-0.0051712
90.8,-0.00504303
91.28,-0.00487213
91.75999999999999,-0.00521393
92.24000000000001,-0.0047226
92.72,-0.00540619
93.19999999999999,-0.00542755
93.68,-0.00485077
94.16,-0.00461578
94.64,-0.00525665
95.12,-0.00532074
95.6,-0.00542755
96.08,-0.00519257
96.56,-0.00540619
97.03999999999999,-0.00570526
97.52,-0.00538483
98.0,-0.00579071
98.48,-0.00574799
98.96,-0.00566254
99.44,-0.00587616
99.92,-0.00600433
100.4,-0.00600433
100.88,-0.00572662
101.36,-0.00570526
101.84,-0.00589752
102.32000000000001,-0.00553436
102.8,-0.00583344
103.28,-0.00596161
103.76,-0.00604706
104.24,-0.00596161
104.72,-0.00587616
105.2,-0.00615387
105.67999999999999,-0.00611115
106.16000000000001,-0.00626068
106.64,-0.00611115
107.11999999999999,-0.00596161
107.60000000000001,-0.00623932
108.08,-0.00591888
108.56,-0.0064743
109.04,-0.00608978
109.52,-0.00628204
110.0,-0.00634613
110.48,-0.00653839
110.96,-0.00632477
111.44,-0.00645294
111.92,-0.00587616
112.4,-0.00626068
112.88,-0.00645294
113.36,-0.0064743
113.84,-0.00649567
114.32,-0.00643158
114.8,-0.00600433
115.28,-0.0068161
115.75999999999999,-0.00668793
116.24000000000001,-0.0066452
116.72,-0.00666656
117.19999999999999,-0.00638885
117.68,-0.00651703
118.16,-0.00651703
118.64,-0.00653839
119.12,-0.00641022
119.6,-0.00598297
120.08,-0.00679474
120.56,-0.00643158
121.03999999999999,-0.00670929
121.52,-0.00645294
122.0,-0.00619659
122.48,-0.00685883
122.96,-0.00675201
123.44,-0.00643158
123.92,-0.00653839
124.39999999999999,-0.0066452
124.88,-0.00660248
125.36000000000001,-0.00658112
125.84,-0.00683746
126.32000000000001,-0.00690155
126.8,-0.0066452
127.27999999999999,-0.00685883
127.75999999999999,-0.00696564
128.24,-0.0066452
128.72000000000003,-0.00653839
129.2,-0.00677338
129.68,-0.00702972
130.16,-0.0066452
130.64,-0.00679474
131.12,-0.0068161
131.6,-0.00696564
132.08,-0.00636749
132.56,-0.00645294
133.04,-0.00683746
133.51999999999998,-0.00696564
134.0,-0.00668793
134.48000000000002,-0.00662384
134.96,-0.00651703
135.44,-0.00717926
135.92,-0.00666656
136.39999999999998,-0.00641022
136.88,-0.00696564
137.36,-0.00720062
137.84,-0.00741425
138.32,-0.00688019
138.79999999999998,-0.00720062
139.27999999999997,-0.00702972
139.76000000000002,-0.00683746
140.24,-0.006987
140.72,-0.00683746
141.2,-0.00670929
141.67999999999998,-0.00690155
142.16000000000003,-0.0068161
142.64000000000001,-0.00679474
143.12,-0.00702972
143.6,-0.00683746
144.07999999999998,-0.00668793
144.56,-0.00666656
145.04000000000002,-0.00690155
145.52,-0.00700836
146.0,-0.00709381
146.48,-0.00720062
146.96,-0.0068161
147.44,-0.00700836
147.92000000000002,-0.00711517
148.4,-0.00685883
148.88,-0.00666656
149.35999999999999,-0.00702972
149.84,-0.00677338
150.32,-0.00690155
150.8,-0.00692291
151.28,-0.00675201
151.76,-0.00694427
152.24,-0.00688019
152.72,-0.00645294
153.2,-0.00696564
153.68,-0.00707245
154.16,-0.00702972
154.64000000000001,-0.00726471
155.12,-0.00730743
155.6,-0.0073288
156.07999999999998,-0.00713654
156.56,-0.0071579
157.04000000000002,-0.0071579
157.52,-0.0071579
158.0,-0.00707245
158.48,-0.00700836
158.95999999999998,-0.00696564
159.44,-0.00705109
159.92000000000002,-0.00707245
160.4,-0.00696564
160.88,-0.00688019
161.35999999999999,-0.00726471
161.83999999999997,-0.00707245
162.32000000000002,-0.00670929
162.8,-0.00690155
163.28,-0.00688019
163.76,-0.00662384
164.23999999999998,-0.00673065
164.72,-0.00668793
165.20000000000002,-0.00709381
165.68,-0.00709381
166.16,-0.00749969
166.64,-0.00694427
167.12,-0.00677338
167.6,-0.00709381
168.08,-0.00700836
168.56,-0.00713654
169.04,-0.0071579
169.51999999999998,-0.00700836
170.0,-0.00705109
170.48000000000002,-0.0071579
170.96,-0.00679474
171.44,-0.00730743
171.92,-0.00730743
172.4,-0.00688019
172.88,-0.00700836
173.36,-0.00683746
173.84,-0.00683746
174.32,-0.00666656
174.8,-0.006987
175.28,-0.00696564
175.76,-0.00705109
176.24,-0.0071579
176.72,-0.00711517
177.20000000000002,-0.00720062
177.68,-0.00677338
178.16,-0.00702972
178.64,-0.00670929
179.12,-0.00739288
179.6,-0.00728607
180.08,-0.00702972
180.56,-0.00709381
181.04,-0.00683746
181.51999999999998,-0.00649567
182.0,-0.00690155
182.48000000000002,-0.00711517
182.96,-0.00670929
183.44,-0.00717926
183.92,-0.00713654
184.39999999999998,-0.00685883
184.88000000000002,-0.00694427
185.36,-0.00730743
185.84,-0.0073288
186.32,-0.00709381
186.79999999999998,-0.00702972
187.28,-0.00696564
187.76000000000002,-0.00709381
188.24,-0.00735016
188.72,-0.006987
189.2,-0.00720062
189.67999999999998,-0.00722198
190.16,-0.00720062
190.64000000000001,-0.00713654
191.12,-0.00741425
191.6,-0.00711517
192.07999999999998,-0.00745697
192.56,-0.00722198
193.04,-0.00675201
193.52,-0.00747833
194.0,-0.00752106
194.48,-0.00722198
194.96,-0.00670929
195.44,-0.00707245
195.92,-0.00741425
196.4,-0.00758514
196.88,-0.0071579
197.36,-0.00722198
197.84,-0.00754242
198.32,-0.00713654
198.8,-0.00683746
199.28,-0.00735016
199.76,-0.00730743
200.24,-0.00735016
200.72,-0.00717926
201.2,-0.00709381
201.68,-0.00756378
202.16,-0.00747833
202.64000000000001,-0.00726471
203.12,-0.00713654
203.6,-0.00745697
204.07999999999998,-0.00741425
204.56,-0.00764923
205.04000000000002,-0.00713654
205.52,-0.00720062
206.0,-0.00764923
206.48,-0.00752106
206.95999999999998,-0.00709381
207.44,-0.00735016
207.92000000000002,-0.00743561
208.4,-0.00764923
208.88,-0.00702972
209.35999999999999,-0.00705109
209.83999999999997,-0.00749969
210.32000000000002,-0.00764923
210.8,-0.00724335
211.28,-0.00722198
211.76,-0.00758514
212.23999999999998,-0.00769196
212.72,-0.00720062
213.20000000000002,-0.00739288
213.68,-0.00722198
214.16,-0.00739288
214.64,-0.00739288
215.12,-0.00720062
215.6,-0.00730743
216.08,-0.0073288
216.56,-0.00709381
217.04,-0.00730743
217.52,-0.00726471
218.0,-0.00749969
218.48,-0.00760651
218.96,-0.00707245
219.44,-0.00737152
219.92,-0.00702972
220.4,-0.00739288
220.88,-0.00745697
221.35999999999999,-0.00743561
221.84,-0.00760651
222.32,-0.00758514
222.8,-0.00764923
223.28,-0.00735016
223.76,-0.00730743
224.24,-0.00771332
224.72,-0.00728607
225.20000000000002,-0.00728607
225.68,-0.00743561
226.16,-0.00728607
226.64,-0.00745697
227.12,-0.0073288
227.6,-0.00745697
228.08,-0.00745697
228.56,-0.00728607
229.04,-0.00726471
229.51999999999998,-0.00722198
230.0,-0.00735016
230.48000000000002,-0.00720062
230.96,-0.00728607
231.44,-0.0073288
231.92,-0.00758514
232.39999999999998,-0.00749969
232.88000000000002,-0.00737152
233.36,-0.00747833
233.84,-0.00743561
234.32,-0.00709381
234.79999999999998,-0.00762787
235.28,-0.00747833
235.76000000000002,-0.00722198
236.24,-0.00726471
236.72,-0.00760651
237.2,-0.00713654
237.68,-0.00702972
238.16,-0.00743561
238.64000000000001,-0.00743561
239.12,-0.00739288
239.6,-0.00720062
240.07999999999998,-0.00724335
240.56,-0.00717926
241.04,-0.00745697
241.52,-0.00730743
242.0,-0.00705109
242.48,-0.00769196
242.96,-0.00745697
243.44,-0.00749969
243.92,-0.00747833
244.4,-0.00775604
244.88,-0.00743561
245.36,-0.00739288
245.84,-0.00758514
246.32000000000002,-0.00726471
246.79999999999998,-0.0073288
247.28,-0.00717926
247.76,-0.00728607
248.24,-0.00679474
248.72000000000003,-0.00752106
249.2,-0.00747833
249.68,-0.0073288
250.15999999999997,-0.00739288
250.64000000000001,-0.00741425
251.11999999999998,-0.00730743
251.6,-0.00728607
252.08,-0.00743561
252.55999999999997,-0.00720062
253.04000000000002,-0.00745697
253.51999999999998,-0.00756378
254.0,-0.00754242
254.48000000000002,-0.00747833
254.95999999999998,-0.00758514
255.44000000000003,-0.00700836
255.92,-0.00735016
256.4,-0.00775604
256.88,-0.00784149
257.36,-0.00790558
257.84000000000003,-0.00745697
258.32,-0.0071579
258.8,-0.00709381
259.28,-0.00745697
259.76,-0.0073288
260.24,-0.00749969
260.71999999999997,-0.00735016
261.2,-0.00720062
261.68,-0.00762787
262.16,-0.00790558
262.64000000000004,-0.0077774
263.12,-0.00799103
263.6,-0.00771332
264.08,-0.00771332
264.56,-0.00779877
265.03999999999996,-0.00741425
265.52,-0.00747833
266.0,-0.00711517
266.47999999999996,-0.0077774
266.96000000000004,-0.00784149
267.44,-0.00764923
267.92,-0.00758514
268.40000000000003,-0.00762787
268.88,-0.00754242
269.36,-0.00775604
269.84,-0.00764923
270.32,-0.00771332
270.79999999999995,-0.00747833
271.28,-0.00769196
271.76,-0.00771332
272.24,-0.00771332
272.72,-0.00767059
273.2,-0.00692291
273.68,-0.00762787
274.16,-0.00747833
274.64,-0.00749969
275.12,-0.00756378
275.59999999999997,-0.00752106
276.08,-0.00720062
276.55999999999995,-0.00735016
277.04,-0.00735016
277.52000000000004,-0.00739288
278.0,-0.0071579
278.48,-0.00758514
278.96,-0.00790558
279.44,-0.00758514
279.92,-0.0073288
280.4,-0.00717926
280.88,-0.00730743
281.35999999999996,-0.00739288
281.84000000000003,-0.00756378
282.32000000000005,-0.0077774
282.8,-0.00741425
283.28000000000003,-0.00737152
283.76,-0.00737152
284.24,-0.00771332
284.71999999999997,-0.00775604
285.2,-0.00779877
285.68,-0.00724335
286.15999999999997,-0.00764923
286.64,-0.00764923
287.12,-0.00728607
287.6,-0.00779877
288.08000000000004,-0.0073288
288.56,-0.00745697
289.04,-0.00720062
289.52,-0.00745697
290.0,-0.00756378
290.47999999999996,-0.00741425
290.96,-0.00754242
291.44,-0.00764923
291.92,-0.00735016
292.40000000000003,-0.00762787
292.88,-0.00726471
293.36,-0.00737152
293.84000000000003,-0.00737152
294.32,-0.00711517
294.8,-0.0071579
295.28,-0.00745697
295.76,-0.00737152
296.23999999999995,-0.00771332
296.71999999999997,-0.00758514
297.20000000000005,-0.00720062
297.68,-0.00758514
298.16,-0.00754242
298.64,-0.00758514
299.12,-0.00784149
299.6,-0.0077774
300.08,-0.00741425
300.56,-0.00745697
301.03999999999996,-0.00762787
301.52,-0.00786285
302.0,-0.00790558
302.48,-0.00790558
302.96000000000004,-0.00739288
303.44,-0.00764923
303.92,-0.00758514
304.4,-0.00762787
304.88,-0.00728607
305.36,-0.00702972
305.84,-0.00758514
306.32,-0.00779877
306.79999999999995,-0.00762787
307.28000000000003,-0.0077774
307.76000000000005,-0.00743561
308.24,-0.00739288
308.72,-0.00796967
309.2,-0.00773468
309.68,-0.00754242
310.15999999999997,-0.0079483
310.64,-0.00749969
311.12,-0.00754242
311.59999999999997,-0.00707245
312.08000000000004,-0.00749969
312.56,-0.00726471
313.04,-0.00749969
313.52000000000004,-0.00771332
314.0,-0.00779877
314.48,-0.00790558
314.96,-0.0077774
315.44,-0.00728607
315.91999999999996,-0.00764923
316.4,-0.0077774
316.88,-0.00784149
317.36,-0.00790558
317.84000000000003,-0.0077774
318.32,-0.00764923
318.8,-0.00752106
319.28000000000003,-0.00741425
319.76,-0.00745697
320.24,-0.00739288
320.71999999999997,-0.00741425
321.2,-0.00741425
321.67999999999995,-0.00728607
322.16,-0.0071579
322.64000000000004,-0.00726471
323.12,-0.00735016
323.6,-0.00722198
324.08,-0.00745697
324.56,-0.00756378
325.04,-0.00741425
325.52,-0.00769196
326.0,-0.00741425
326.47999999999996,-0.00754242
326.96,-0.00769196
327.44,-0.00775604
327.92,-0.0073288
328.40000000000003,-0.00743561
328.88,-0.00730743
329.36,-0.00720062
329.84,-0.00764923
330.32,-0.00764923
330.8,-0.00754242
331.28,-0.00769196
331.76,-0.00752106
332.24,-0.00739288
332.72,-0.00767059
333.2,-0.0073288
333.68,-0.00773468
334.16,-0.00749969
334.64,-0.00769196
335.12,-0.00779877
335.59999999999997,-0.00764923
336.08,-0.00726471
336.56,-0.00758514
337.03999999999996,-0.00773468
337.52000000000004,-0.0077774
338.0,-0.00764923
338.48,-0.00767059
338.96000000000004,-0.00737152
339.44,-0.00754242
339.92,-0.00730743
340.4,-0.00741425
340.88,-0.00756378
341.35999999999996,-0.00743561
341.84,-0.00739288
342.32,-0.00771332
342.8,-0.00771332
343.28000000000003,-0.00720062
343.76,-0.00745697
344.24,-0.00737152
344.72,-0.00743561
345.2,-0.00735016
345.68,-0.00745697
346.15999999999997,-0.0077774
346.64,-0.00792694
347.11999999999995,-0.00752106
347.6,-0.00771332
348.08000000000004,-0.00747833
348.56,-0.00743561
349.04,-0.00739288
349.52,-0.00762787
350.0,-0.00720062
350.48,-0.00709381
350.96,-0.00739288
351.44,-0.00728607
351.91999999999996,-0.00756378
352.40000000000003,-0.00790558
352.88,-0.00752106
353.36,-0.00775604
353.84000000000003,-0.00745697
354.32,-0.00764923
354.8,-0.00767059
355.28,-0.00760651
355.76,-0.00758514
356.24,-0.00756378
356.71999999999997,-0.00743561
357.2,-0.00752106
357.68,-0.00722198
358.16,-0.00792694
358.64,-0.00764923
359.12,-0.00784149
359.6,-0.00760651
360.08,-0.00745697
360.56,-0.00741425
361.03999999999996,-0.00726471
361.52,-0.00762787
362.0,-0.00773468
362.48,-0.00745697
362.96000000000004,-0.00745697
363.44,-0.00764923
363.92,-0.00756378
364.40000000000003,-0.00724335
364.88,-0.00764923
365.36,-0.00735016
365.84,-0.00775604
366.32,-0.00784149
366.79999999999995,-0.00775604
367.28,-0.00788422
367.76000000000005,-0.00775604
368.24,-0.00745697
368.72,-0.00743561
369.2,-0.00788422
369.68,-0.00764923
370.16,-0.00739288
370.64,-0.00769196
371.12,-0.00782013
371.59999999999997,-0.00752106
372.08,-0.00760651
372.56,-0.00739288
373.04,-0.00764923
373.52000000000004,-0.00767059
374.0,-0.00745697
374.48,-0.00752106
374.96,-0.00730743
375.44,-0.00739288
375.92,-0.00790558
376.4,-0.00788422
376.88,-0.00760651
377.35999999999996,-0.00771332
377.84000000000003,-0.0077774
378.32,-0.00752106
378.8,-0.00758514
379.28000000000003,-0.00730743
379.76,-0.00726471
380.24,-0.00741425
380.71999999999997,-0.00728607
381.2,-0.00771332
381.68,-0.00756378
382.15999999999997,-0.00688019
382.64000000000004,-0.00747833
383.12,-0.00758514
383.6,-0.00756378
384.08,-0.00803375
384.56,-0.00741425
385.04,-0.00747833
385.52,-0.00745697
386.0,-0.0077774
386.47999999999996,-0.00745697
386.96,-0.00764923
387.44,-0.00762787
387.92,-0.00767059
388.40000000000003,-0.00764923
388.88,-0.00752106
389.36,-0.00745697
389.84,-0.00747833
390.32,-0.0077774
390.8,-0.00801239
391.28,-0.00784149
391.76,-0.00764923
392.23999999999995,-0.00758514
392.72,-0.00741425
393.20000000000005,-0.00773468
393.68,-0.00758514
394.16,-0.00756378
394.64,-0.00730743
395.12,-0.0073288
395.6,-0.00747833
396.08,-0.00754242
396.56,-0.00747833
397.03999999999996,-0.00762787
397.52,-0.00739288
398.0,-0.00752106
398.48,-0.00764923
398.96000000000004,-0.00739288
399.44,-0.0077774
399.92,-0.00752106
400.4,-0.00782013
400.88,-0.00784149
401.36,-0.00764923
401.84,-0.00739288
402.32,-0.00773468
402.8,-0.0077774
403.28000000000003,-0.00754242
403.76,-0.00779877
404.24,-0.00758514
404.72,-0.0079483
405.2,-0.00803375
405.68,-0.00779877
406.15999999999997,-0.00788422
406.64,-0.00747833
407.12,-0.00773468
407.59999999999997,-0.00760651
408.08000000000004,-0.00762787
408.56,-0.0077774
409.04,-0.00801239
409.52,-0.00769196
410.0,-0.00752106
410.48,-0.00764923
410.96,-0.00764923
411.44,-0.00760651
411.91999999999996,-0.00764923
412.4,-0.00764923
412.88,-0.00773468
413.36,-0.00758514
413.84000000000003,-0.00728607
414.32,-0.00767059
414.8,-0.00747833
415.28,-0.00722198
415.76,-0.00752106
416.24,-0.00754242
416.71999999999997,-0.00726471
417.2,-0.00711517
417.67999999999995,-0.00752106
418.16,-0.00756378
418.64000000000004,-0.00737152
419.12,-0.00760651
419.6,-0.00779877
420.08,-0.0073288
420.56,-0.00771332
421.04,-0.00722198
421.52,-0.00758514
422.0,-0.00726471
422.47999999999996,-0.00737152
422.96000000000004,-0.0073288
423.44,-0.00726471
423.92,-0.00713654
424.40000000000003,-0.00730743
424.88,-0.00720062
425.36,-0.00722198
425.84,-0.00771332
426.32,-0.00764923
426.8,-0.00762787
427.28,-0.00756378
427.76,-0.00760651
428.24,-0.00769196
428.72,-0.00803375
429.2,-0.00775604
429.68,-0.00769196
430.16,-0.00762787
430.64,-0.00764923
431.12,-0.00720062
431.59999999999997,-0.00713654
432.08,-0.00754242
432.56,-0.00771332
433.04,-0.00758514
433.52000000000004,-0.00683746
434.0,-0.00743561
434.48,-0.00726471
434.96,-0.00749969
435.44,-0.00713654
435.92,-0.00705109
436.4,-0.00726471
436.88,-0.00771332
437.35999999999996,-0.00730743
437.84,-0.00756378
438.32000000000005,-0.00771332
438.8,-0.00735016
439.28000000000003,-0.0071579
439.76,-0.0073288
440.24,-0.00745697
440.71999999999997,-0.00764923
441.2,-0.0073288
441.68,-0.00724335
442.15999999999997,-0.00688019
442.64,-0.00762787
443.12,-0.0079483
443.6,-0.00749969
444.08000000000004,-0.00739288
444.56,-0.00743561
445.04,-0.00762787
445.52,-0.00739288
446.0,-0.00743561
446.48,-0.00745697
446.96,-0.00747833
447.44,-0.00720062
447.91999999999996,-0.00739288
448.40000000000003,-0.00749969
448.88,-0.00756378
449.36,-0.00747833
449.84000000000003,-0.00784149
450.32,-0.00756378
450.8,-0.00747833
451.28,-0.00745697
451.76,-0.00749969
452.24,-0.00747833
452.71999999999997,-0.0073288
453.2,-0.00737152
453.68,-0.00764923
454.16,-0.00752106
454.64,-0.00752106
455.12,-0.00752106
455.6,-0.0073288
456.08,-0.00713654
456.56,-0.00758514
457.03999999999996,-0.00745697
457.52,-0.00764923
458.0,-0.00764923
458.48,-0.0073288
458.96000000000004,-0.00735016
459.44,-0.00773468
459.92,-0.00764923
460.4,-0.00784149
460.88,-0.00771332
461.36,-0.00747833
461.84,-0.00745697
462.32,-0.00739288
462.79999999999995,-0.00743561
463.28000000000003,-0.00700836
463.76000000000005,-0.00771332
464.24,-0.00756378
464.72,-0.00745697
465.2,-0.00803375
465.68,-0.00752106
466.15999999999997,-0.00767059
466.64,-0.00726471
467.12,-0.00769196
467.59999999999997,-0.00749969
468.08,-0.00754242
468.56,-0.00769196
469.04,-0.00773468
469.52000000000004,-0.00720062
470.0,-0.00713654
470.48,-0.00711517
470.96,-0.00767059
471.44,-0.00790558
471.91999999999996,-0.00730743
472.4,-0.00709381
472.88,-0.00801239
473.36,-0.00771332
473.84000000000003,-0.00700836
474.32,-0.00749969
474.8,-0.00775604
475.28000000000003,-0.00762787
475.76,-0.00749969
476.24,-0.0077774
476.71999999999997,-0.00786285
477.2,-0.00809784
477.68,-0.00760651
478.15999999999997,-0.00724335
478.64000000000004,-0.00771332
479.12,-0.0073288
479.6,-0.00745697
480.08,-0.00771332
480.56,-0.0077774
481.04,-0.00713654
481.52,-0.00724335
482.0,-0.00786285
482.47999999999996,-0.00764923
482.96,-0.00752106
483.44,-0.00752106
483.92,-0.00752106
484.40000000000003,-0.00730743
484.88,-0.00758514
485.36,-0.00762787
485.84,-0.00762787
486.32,-0.00728607
486.8,-0.00758514
487.28,-0.00739288
487.76,-0.00745697
488.23999999999995,-0.00767059
488.72,-0.00775604
489.20000000000005,-0.00745697
489.68,-0.00752106
490.16,-0.00745697
490.64000000000004,-0.00754242
491.12,-0.00739288
491.59999999999997,-0.00717926
492.08000000000004,-0.00722198
492.56,-0.00739288
493.03999999999996,-0.00762787
493.52,-0.00737152
494.00000000000006,-0.00749969
494.48,-0.00747833
494.96,-0.00730743
495.44000000000005,-0.00754242
495.92,-0.00784149
496.4,-0.00758514
496.87999999999994,-0.00756378
497.36,-0.00745697
497.84,-0.00758514
498.31999999999994,-0.00760651
498.80000000000007,-0.00726471
499.28000000000003,-0.00754242
499.76,-0.00739288
500.23999999999995,-0.00728607
500.72,-0.00685883
501.2,-0.0073288
501.67999999999995,-0.00722198
502.16,-0.00737152
502.64,-0.00743561
503.11999999999995,-0.00730743
503.6,-0.00724335
504.08000000000004,-0.00720062
504.56,-0.00726471
505.03999999999996,-0.00728607
505.52000000000004,-0.00730743
506.0,-0.00745697
506.47999999999996,-0.00747833
506.96000000000004,-0.00762787
507.44,-0.00747833
507.91999999999996,-0.00752106
508.4,-0.00711517
508.88000000000005,-0.00760651
509.36,-0.0073288
509.84,-0.00735016
510.32000000000005,-0.00749969
510.8,-0.00749969
511.28,-0.00739288
511.76000000000005,-0.00747833
512.24,-0.00747833
512.72,-0.00756378
513.1999999999999,-0.00771332
513.6800000000001,-0.00756378
514.16,-0.00754242
514.64,-0.00788422
515.12,-0.00769196
515.6,-0.0073288
516.0799999999999,-0.00728607
516.56,-0.00762787
517.0400000000001,-0.00786285
517.52,-0.00758514
518.0,-0.00790558
518.48,-0.00782013
518.96,-0.00779877
519.4399999999999,-0.00730743
519.92,-0.00762787
520.4,-0.00762787
520.88,-0.00726471
521.36,-0.00749969
521.84,-0.00771332
522.32,-0.00747833
522.8,-0.00775604
523.2800000000001,-0.00739288
523.76,-0.00764923
524.24,-0.00771332
524.7199999999999,-0.00745697
525.2,-0.00764923
525.68,-0.00796967
526.16,-0.0077774
526.6400000000001,-0.00758514
527.12,-0.00752106
527.6,-0.00805511
528.0799999999999,-0.00745697
528.5600000000001,-0.00779877
529.04,-0.0077774
529.52,-0.00769196
530.0,-0.00801239
530.48,-0.00769196
530.9599999999999,-0.00801239
531.44,-0.00743561
531.9200000000001,-0.00758514
532.4,-0.00764923
532.88,-0.00752106
533.36,-0.00779877
533.84,-0.0073288
534.3199999999999,-0.00769196
534.8000000000001,-0.00760651
535.28,-0.00756378
535.76,-0.00735016
536.24,-0.00735016
536.72,-0.00769196
537.2,-0.00758514
537.68,-0.00745697
538.1600000000001,-0.00739288
538.64,-0.0077774
539.12,-0.00745697
539.5999999999999,-0.00769196
540.08,-0.00762787
540.56,-0.00758514
541.04,-0.00717926
541.52,-0.0073288
542.0,-0.00758514
542.48,-0.00764923
542.96,-0.00739288
543.44,-0.00760651
543.92,-0.00760651
544.4,-0.00754242
544.88,-0.00754242
545.36,-0.00752106
545.8399999999999,-0.00754242
546.32,-0.00758514
546.8000000000001,-0.00773468
547.28,-0.00737152
547.76,-0.00758514
548.24,-0.00745697
548.72,-0.00752106
549.1999999999999,-0.00735016
549.6800000000001,-0.00771332
550.16,-0.00790558
550.64,-0.0073288
551.1199999999999,-0.00760651
551.6,-0.00739288
552.08,-0.00769196
552.56,-0.00717926
553.0400000000001,-0.00767059
553.52,-0.00739288
554.0,-0.00773468
554.48,-0.00720062
554.96,-0.00724335
555.4399999999999,-0.00767059
555.92,-0.00764923
556.4,-0.00762787
556.88,-0.00752106
557.36,-0.00737152
557.84,-0.00773468
558.32,-0.00747833
558.8,-0.00717926
559.28,-0.00764923
559.76,-0.0079483
560.24,-0.00790558
560.7199999999999,-0.00726471
561.2,-0.0077774
561.6800000000001,-0.00826874
562.16,-0.00792694
562.6400000000001,-0.00769196
563.12,-0.00788422
563.6,-0.0077774
564.0799999999999,-0.00803375
564.5600000000001,-0.00786285
565.04,-0.00773468
565.52,-0.0073288
566.0,-0.0073288
566.48,-0.00782013
