Time/us,Voltage/V
-842.37,-0.00363568
-841.6999999999999,-0.00372723
-841.02,-0.00357465
-840.3499999999999,-0.00369672
-839.6800000000001,-0.00372723
-839.01,-0.00360516
-838.3399999999999,-0.0035899
-837.66,-0.00362042
-836.99,-0.00368146
-836.32,-0.0036662
-835.65,-0.00368146
-834.98,-0.00346783
-834.3,-0.0035899
-833.63,-0.00362042
-832.96,-0.00378827
-832.29,-0.00368146
-831.62,-0.00374249
-830.94,-0.0038493
-830.27,-0.00404767
-829.6,-0.00387982
-828.9300000000001,-0.00394086
-828.26,-0.00383405
-827.58,-0.00383405
-826.91,-0.00401715
-826.24,-0.00381879
-825.57,-0.00391034
-824.9,-0.0038493
-824.22,-0.0039256
-823.55,-0.00381879
-822.88,-0.0039256
-822.21,-0.00395612
-821.54,-0.0036662
-820.86,-0.00374249
-820.1899999999999,-0.00374249
-819.52,-0.00378827
-818.85,-0.00377301
-818.18,-0.00389508
-817.5,-0.00378827
-816.83,-0.00378827
-816.16,-0.00391034
-815.49,-0.00368146
-814.82,-0.00368146
-814.14,-0.00377301
-813.47,-0.00378827
-812.8,-0.00374249
-812.13,-0.00372723
-811.46,-0.0038493
-810.7800000000001,-0.00380353
-810.11,-0.00380353
-809.4399999999999,-0.0036662
-808.7700000000001,-0.00378827
-808.1,-0.00369672
-807.4200000000001,-0.00381879
-806.75,-0.00381879
-806.0799999999999,-0.0039256
-805.4100000000001,-0.00391034
-804.74,-0.0038493
-804.0600000000001,-0.00378827
-803.39,-0.0039256
-802.72,-0.00371198
-802.05,-0.00387982
-801.38,-0.00371198
-800.7,-0.00378827
-800.03,-0.0036662
-799.36,-0.00389508
-798.6899999999999,-0.00372723
-798.02,-0.00371198
-797.3399999999999,-0.00378827
-796.6700000000001,-0.00380353
-796.0,-0.00387982
-795.3299999999999,-0.00378827
-794.6600000000001,-0.0039256
-793.9799999999999,-0.00407819
-793.3100000000001,-0.00375775
-792.64,-0.00372723
-791.9699999999999,-0.00386456
-791.3000000000001,-0.0038493
-790.62,-0.00389508
-789.95,-0.00381879
-789.28,-0.00368146
-788.61,-0.00389508
-787.94,-0.00368146
-787.26,-0.00380353
-786.59,-0.0038493
-785.92,-0.00375775
-785.25,-0.00380353
-784.58,-0.00369672
-783.9,-0.0038493
-783.23,-0.00387982
-782.5600000000001,-0.00371198
-781.89,-0.00362042
-781.22,-0.0038493
-780.54,-0.00387982
-779.87,-0.00375775
-779.2,-0.00374249
-778.53,-0.00389508
-777.8599999999999,-0.00378827
-777.18,-0.00375775
-776.5100000000001,-0.00386456
-775.84,-0.00381879
-775.17,-0.00387982
-774.5,-0.00383405
-773.8199999999999,-0.0039256
-773.15,-0.00394086
-772.48,-0.00383405
-771.81,-0.00378827
-771.14,-0.00381879
-770.46,-0.00391034
-769.79,-0.0038493
-769.12,-0.00380353
-768.45,-0.00380353
-767.78,-0.00386456
-767.1,-0.00381879
-766.43,-0.0039256
-765.76,-0.00371198
-765.09,-0.00360516
-764.42,-0.0038493
-763.74,-0.00377301
-763.0699999999999,-0.00368146
-762.4000000000001,-0.00368146
-761.73,-0.00375775
-761.06,-0.00372723
-760.38,-0.00378827
-759.7099999999999,-0.00365094
-759.0400000000001,-0.00375775
-758.37,-0.00377301
-757.6999999999999,-0.00368146
-757.02,-0.00362042
-756.35,-0.00375775
-755.6800000000001,-0.00374249
-755.01,-0.00368146
-754.34,-0.00381879
-753.66,-0.00374249
-752.99,-0.00383405
-752.3199999999999,-0.00397137
-751.65,-0.00371198
-750.98,-0.00349835
-750.3000000000001,-0.00372723
-749.63,-0.00380353
-748.9599999999999,-0.00368146
-748.2900000000001,-0.00368146
-747.62,-0.00357465
-746.94,-0.00360516
-746.27,-0.00391034
-745.5999999999999,-0.00374249
-744.9300000000001,-0.00378827
-744.26,-0.00380353
-743.58,-0.0035899
-742.91,-0.00363568
-742.24,-0.00375775
-741.57,-0.00368146
-740.9,-0.00378827
-740.22,-0.00375775
-739.55,-0.0036662
-738.88,-0.00369672
-738.21,-0.0035899
-737.54,-0.00360516
-736.86,-0.00372723
-736.19,-0.00372723
-735.52,-0.00365094
-734.85,-0.00375775
-734.1800000000001,-0.00371198
-733.5,-0.00372723
-732.83,-0.00360516
-732.16,-0.00374249
-731.49,-0.00371198
-730.82,-0.00365094
-730.1400000000001,-0.00378827
-729.47,-0.00371198
-728.8,-0.0038493
-728.13,-0.00378827
-727.46,-0.00387982
-726.7800000000001,-0.00363568
-726.11,-0.00368146
-725.4399999999999,-0.00360516
-724.77,-0.00363568
-724.1,-0.00357465
-723.42,-0.00368146
-722.75,-0.00371198
-722.08,-0.0038493
-721.41,-0.00386456
-720.74,-0.00365094
-720.06,-0.00377301
-719.39,-0.00357465
-718.72,-0.00354413
-718.05,-0.00357465
-717.38,-0.00363568
-716.6999999999999,-0.00371198
-716.0300000000001,-0.00375775
-715.36,-0.00352887
-714.6899999999999,-0.00372723
-714.0200000000001,-0.00371198
-713.3399999999999,-0.00378827
-712.6700000000001,-0.00371198
-712.0,-0.00368146
-711.3299999999999,-0.00375775
-710.6600000000001,-0.00365094
-709.98,-0.00374249
-709.3100000000001,-0.00363568
-708.64,-0.00375775
-707.97,-0.00371198
-707.3,-0.00381879
-706.62,-0.00381879
-705.95,-0.00378827
-705.28,-0.00377301
-704.61,-0.00369672
-703.9399999999999,-0.00372723
-703.26,-0.00365094
-702.5899999999999,-0.00391034
-701.9200000000001,-0.00354413
-701.25,-0.00371198
-700.5799999999999,-0.0035899
-699.9,-0.00368146
-699.2299999999999,-0.00374249
-698.5600000000001,-0.00365094
-697.89,-0.00371198
-697.2199999999999,-0.00362042
-696.54,-0.00363568
-695.87,-0.0035899
-695.2,-0.00375775
-694.53,-0.00380353
-693.86,-0.00375775
-693.18,-0.00377301
-692.51,-0.0036662
-691.84,-0.00377301
-691.17,-0.00378827
-690.5,-0.00374249
-689.82,-0.00378827
-689.15,-0.00386456
-688.48,-0.00363568
-687.8100000000001,-0.00372723
-687.14,-0.00389508
-686.46,-0.00386456
-685.79,-0.00389508
-685.12,-0.00381879
-684.45,-0.00349835
-683.78,-0.00377301
-683.1,-0.00368146
-682.43,-0.00362042
-681.7600000000001,-0.00375775
-681.09,-0.00374249
-680.42,-0.00369672
-679.74,-0.00378827
-679.0699999999999,-0.00374249
-678.4,-0.00365094
-677.73,-0.00374249
-677.06,-0.00374249
-676.38,-0.00375775
-675.71,-0.00365094
-675.04,-0.00369672
-674.37,-0.00381879
-673.7,-0.0039256
-673.02,-0.00374249
-672.35,-0.0038493
-671.68,-0.00383405
-671.01,-0.00371198
-670.34,-0.00375775
-669.6600000000001,-0.00357465
-668.99,-0.00369672
-668.3199999999999,-0.0036662
-667.6500000000001,-0.00363568
-666.98,-0.00372723
-666.3000000000001,-0.00372723
-665.63,-0.00355939
-664.9599999999999,-0.00372723
-664.2900000000001,-0.00383405
-663.62,-0.00375775
-662.94,-0.00371198
-662.27,-0.00375775
-661.6,-0.0036662
-660.9300000000001,-0.00371198
-660.26,-0.00365094
-659.58,-0.00380353
-658.91,-0.00362042
-658.24,-0.00365094
-657.5699999999999,-0.00368146
-656.9,-0.00374249
-656.22,-0.00395612
-655.5500000000001,-0.00368146
-654.88,-0.00380353
-654.2099999999999,-0.00357465
-653.5400000000001,-0.00368146
-652.8599999999999,-0.00386456
-652.19,-0.00387982
-651.52,-0.00380353
-650.8499999999999,-0.00368146
-650.1800000000001,-0.00369672
-649.5,-0.00378827
-648.83,-0.00362042
-648.16,-0.00357465
-647.49,-0.00378827
-646.82,-0.00354413
-646.14,-0.00375775
-645.47,-0.00360516
-644.8,-0.00371198
-644.13,-0.00380353
-643.46,-0.0038493
-642.78,-0.0035899
-642.11,-0.00369672
-641.44,-0.00362042
-640.77,-0.00375775
-640.1,-0.00363568
-639.42,-0.00363568
-638.75,-0.00389508
-638.08,-0.0036662
-637.41,-0.00365094
-636.7399999999999,-0.0036662
-636.06,-0.0035899
-635.3900000000001,-0.00375775
-634.72,-0.00362042
-634.05,-0.00357465
-633.38,-0.00374249
-632.6999999999999,-0.00352887
-632.0300000000001,-0.00362042
-631.36,-0.00360516
-630.6899999999999,-0.00377301
-630.02,-0.00374249
-629.34,-0.00374249
-628.67,-0.00362042
-628.0,-0.00362042
-627.33,-0.00377301
-626.66,-0.0036662
-625.98,-0.0038493
-625.31,-0.00375775
-624.64,-0.00380353
-623.97,-0.00381879
-623.3,-0.00383405
-622.62,-0.00380353
-621.9499999999999,-0.00377301
-621.2800000000001,-0.00387982
-620.61,-0.00387982
-619.9399999999999,-0.00362042
-619.26,-0.00375775
-618.5899999999999,-0.00389508
-617.9200000000001,-0.00380353
-617.25,-0.00378827
-616.5799999999999,-0.00372723
-615.9,-0.00381879
-615.23,-0.00375775
-614.5600000000001,-0.00387982
-613.89,-0.00391034
-613.22,-0.00386456
-612.54,-0.00375775
-611.87,-0.00378827
-611.2,-0.00391034
-610.53,-0.00389508
-609.86,-0.00394086
-609.1800000000001,-0.00381879
-608.51,-0.00389508
-607.8399999999999,-0.00387982
-607.1700000000001,-0.00374249
-606.5,-0.00372723
-605.82,-0.00372723
-605.15,-0.00381879
-604.4799999999999,-0.0038493
-603.8100000000001,-0.00378827
-603.14,-0.00362042
-602.46,-0.00371198
-601.79,-0.00371198
-601.12,-0.00377301
-600.45,-0.00387982
-599.78,-0.0038493
-599.1,-0.00380353
-598.43,-0.0038493
-597.76,-0.00378827
-597.09,-0.00383405
-596.42,-0.00389508
-595.74,-0.0039256
-595.07,-0.0039256
-594.4,-0.00372723
-593.73,-0.00381879
-593.0600000000001,-0.00380353
-592.38,-0.00380353
-591.71,-0.00407819
-591.04,-0.00398663
-590.37,-0.00400189
-589.7,-0.00386456
-589.0200000000001,-0.00372723
-588.35,-0.00368146
-587.68,-0.00378827
-587.01,-0.00378827
-586.34,-0.0039256
-585.6600000000001,-0.00391034
-584.99,-0.0039256
-584.3199999999999,-0.00381879
-583.65,-0.00389508
-582.98,-0.00391034
-582.3000000000001,-0.0039256
-581.63,-0.00372723
-580.96,-0.00383405
-580.29,-0.0038493
-579.62,-0.0039256
-578.9399999999999,-0.00375775
-578.27,-0.00401715
-577.6,-0.00383405
-576.93,-0.00387982
-576.26,-0.00386456
-575.5799999999999,-0.0038493
-574.9100000000001,-0.00386456
-574.24,-0.00380353
-573.5699999999999,-0.00377301
-572.9000000000001,-0.00372723
-572.2199999999999,-0.00371198
-571.5500000000001,-0.00381879
-570.88,-0.00372723
-570.2099999999999,-0.00387982
-569.5400000000001,-0.0038493
-568.86,-0.00383405
-568.19,-0.00378827
-567.52,-0.0038493
-566.85,-0.00377301
-566.1800000000001,-0.00375775
-565.5,-0.00372723
-564.83,-0.00375775
-564.16,-0.00377301
-563.49,-0.0038493
-562.8199999999999,-0.00377301
-562.14,-0.00372723
-561.47,-0.00380353
-560.8000000000001,-0.0038493
-560.13,-0.00387982
-559.4599999999999,-0.00400189
-558.78,-0.0039256
-558.1099999999999,-0.00381879
-557.44,-0.00391034
-556.77,-0.00378827
-556.0999999999999,-0.00377301
-555.42,-0.00380353
-554.75,-0.00360516
-554.08,-0.00363568
-553.41,-0.00378827
-552.74,-0.00397137
-552.06,-0.00398663
-551.39,-0.00394086
-550.72,-0.00369672
-550.05,-0.00378827
-549.38,-0.00383405
-548.7,-0.00381879
-548.03,-0.00369672
-547.36,-0.00377301
-546.69,-0.00377301
-546.02,-0.00391034
-545.34,-0.00362042
-544.67,-0.00371198
-544.0,-0.00368146
-543.33,-0.00378827
-542.66,-0.00386456
-541.98,-0.00394086
-541.31,-0.00381879
-540.6400000000001,-0.00372723
-539.97,-0.00375775
-539.3,-0.00391034
-538.62,-0.00387982
-537.9499999999999,-0.00383405
-537.28,-0.00397137
-536.61,-0.00389508
-535.9399999999999,-0.00386456
-535.26,-0.00378827
-534.59,-0.00375775
-533.92,-0.00389508
-533.25,-0.00394086
-532.58,-0.00368146
-531.9,-0.0038493
-531.23,-0.00375775
-530.56,-0.00377301
-529.89,-0.00372723
-529.22,-0.00371198
-528.5400000000001,-0.00395612
-527.87,-0.00389508
-527.1999999999999,-0.00387982
-526.5300000000001,-0.00383405
-525.86,-0.00387982
-525.1800000000001,-0.00374249
-524.51,-0.00380353
-523.8399999999999,-0.00378827
-523.1700000000001,-0.00363568
-522.5,-0.0036662
-521.82,-0.0036662
-521.15,-0.00383405
-520.48,-0.00372723
-519.8100000000001,-0.00362042
-519.14,-0.00375775
-518.46,-0.0038493
-517.79,-0.00378827
-517.12,-0.00381879
-516.45,-0.00368146
-515.78,-0.00368146
-515.1,-0.00365094
-514.4300000000001,-0.00352887
-513.76,-0.00368146
-513.0899999999999,-0.00355939
-512.4200000000001,-0.00365094
-511.74,-0.00360516
-511.07000000000005,-0.00348309
-510.4,-0.00354413
-509.72999999999996,-0.00360516
-509.06,-0.00363568
-508.37999999999994,-0.00365094
-507.71000000000004,-0.00357465
-507.03999999999996,-0.00360516
-506.36999999999995,-0.00363568
-505.70000000000005,-0.00380353
-505.0199999999999,-0.00362042
-504.35,-0.00380353
-503.68,-0.00355939
-503.01,-0.00377301
-502.34000000000003,-0.0036662
-501.65999999999997,-0.0038493
-500.99,-0.00372723
-500.32,-0.00362042
-499.65,-0.00365094
-498.98,-0.00383405
-498.29999999999995,-0.00374249
-497.63000000000005,-0.00369672
-496.96,-0.00362042
-496.28999999999996,-0.00355939
-495.62000000000006,-0.00360516
-494.93999999999994,-0.00365094
-494.27000000000004,-0.00365094
-493.6,-0.0036662
-492.93,-0.00380353
-492.25999999999993,-0.00365094
-491.58,-0.00380353
-490.91,-0.0039256
-490.24,-0.00351361
-489.57,-0.0035899
-488.9,-0.0036662
-488.21999999999997,-0.00368146
-487.54999999999995,-0.00357465
-486.88,-0.00363568
-486.21,-0.00374249
-485.54,-0.00383405
-484.85999999999996,-0.00357465
-484.19,-0.00377301
-483.52000000000004,-0.00371198
-482.85,-0.00375775
-482.18,-0.0038493
-481.5,-0.00368146
-480.83,-0.00374249
-480.15999999999997,-0.00377301
-479.49,-0.00380353
-478.82,-0.00372723
-478.14,-0.00387982
-477.47,-0.00371198
-476.8,-0.00387982
-476.13,-0.0038493
-475.46000000000004,-0.00383405
-474.78,-0.00360516
-474.11,-0.00372723
-473.44,-0.00371198
-472.77,-0.00352887
-472.09999999999997,-0.00372723
-471.42,-0.00378827
-470.75,-0.00365094
-470.08,-0.00375775
-469.41,-0.00371198
-468.74,-0.00369672
-468.06,-0.00368146
-467.39,-0.00377301
-466.71999999999997,-0.0038493
-466.05,-0.00375775
-465.38,-0.00365094
-464.7,-0.00351361
-464.03,-0.00357465
-463.36,-0.00357465
-462.69,-0.00362042
-462.02,-0.00365094
-461.34000000000003,-0.00348309
-460.66999999999996,-0.00368146
-460.0,-0.00372723
-459.33,-0.0035899
-458.66,-0.00334576
-457.98,-0.00351361
-457.31,-0.00354413
-456.64,-0.00374249
-455.96999999999997,-0.00355939
-455.3,-0.00349835
-454.61999999999995,-0.00355939
-453.95,-0.00362042
-453.28000000000003,-0.00351361
-452.61,-0.00378827
-451.94,-0.0036662
-451.26,-0.0036662
-450.59,-0.0038493
-449.92,-0.0036662
-449.25,-0.0036662
-448.58000000000004,-0.00383405
-447.9,-0.00381879
-447.23,-0.00380353
-446.56,-0.00372723
-445.89,-0.00372723
-445.22,-0.00372723
-444.53999999999996,-0.00374249
-443.87,-0.00372723
-443.2,-0.00383405
-442.53,-0.00365094
-441.86,-0.0038493
-441.18,-0.00389508
-440.51,-0.00374249
-439.84,-0.00374249
-439.17,-0.00381879
-438.5,-0.00389508
-437.82,-0.00381879
-437.15000000000003,-0.00368146
-436.47999999999996,-0.00381879
-435.81,-0.00377301
-435.14,-0.00375775
-434.46,-0.00386456
-433.78999999999996,-0.0038493
-433.12,-0.00381879
-432.45,-0.00394086
-431.78,-0.00383405
-431.1,-0.0038493
-430.42999999999995,-0.00371198
-429.76,-0.00357465
-429.09000000000003,-0.0038493
-428.42,-0.00363568
-427.74,-0.0036662
-427.07,-0.00348309
-426.4,-0.00375775
-425.73,-0.00368146
-425.06,-0.00377301
-424.38,-0.0036662
-423.71,-0.00360516
-423.04,-0.00374249
-422.37,-0.00374249
-421.7,-0.00365094
-421.02000000000004,-0.00378827
-420.34999999999997,-0.00377301
-419.68,-0.0036662
-419.01,-0.00378827
-418.34000000000003,-0.0038493
-417.65999999999997,-0.00369672
-416.99,-0.00371198
-416.32,-0.0036662
-415.65,-0.0038493
-414.98,-0.00383405
-414.29999999999995,-0.00375775
-413.63,-0.00369672
-412.96000000000004,-0.00374249
-412.29,-0.00391034
-411.62,-0.00377301
-410.94,-0.00398663
-410.27,-0.00394086
-409.59999999999997,-0.0038493
-408.93,-0.00374249
-408.26,-0.00386456
-407.58,-0.0038493
-406.91,-0.00381879
-406.24,-0.00378827
-405.57,-0.00363568
-404.90000000000003,-0.00368146
-404.21999999999997,-0.00375775
-403.55,-0.00378827
-402.88,-0.00381879
-402.21,-0.00386456
-401.53999999999996,-0.00371198
-400.86,-0.00389508
-400.19,-0.00404767
-399.52,-0.00397137
-398.85,-0.00374249
-398.18,-0.00369672
-397.5,-0.0038493
-396.83,-0.00395612
-396.15999999999997,-0.00387982
-395.49,-0.00369672
-394.82,-0.00383405
-394.14,-0.0041087
-393.46999999999997,-0.00391034
-392.8,-0.00389508
-392.13,-0.00401715
-391.46,-0.00386456
-390.78000000000003,-0.0038493
-390.10999999999996,-0.00374249
-389.44,-0.00387982
-388.77,-0.00371198
-388.1,-0.00371198
-387.42,-0.00380353
-386.75,-0.00383405
-386.08,-0.00377301
-385.40999999999997,-0.0036662
-384.74,-0.00365094
-384.05999999999995,-0.00375775
-383.39,-0.00349835
-382.72,-0.00371198
-382.05,-0.00362042
-381.38,-0.00368146
-380.7,-0.00365094
-380.03,-0.00374249
-379.36,-0.0036662
-378.69,-0.00375775
-378.02000000000004,-0.00375775
-377.34,-0.00380353
-376.67,-0.00378827
-376.0,-0.00369672
-375.33,-0.00372723
-374.66,-0.00372723
-373.97999999999996,-0.00371198
-373.31,-0.0036662
-372.64,-0.0038493
-371.97,-0.00369672
-371.3,-0.00377301
-370.62,-0.00369672
-369.95,-0.00387982
-369.28,-0.00378827
-368.61,-0.00363568
-367.94,-0.00377301
-367.26,-0.00372723
-366.59000000000003,-0.0036662
-365.92,-0.0035899
-365.25,-0.00363568
-364.58,-0.00362042
-363.9,-0.0035899
-363.23,-0.00377301
-362.56,-0.00369672
-361.89,-0.00363568
-361.21999999999997,-0.00371198
-360.54,-0.00389508
-359.86999999999995,-0.0039256
-359.2,-0.00372723
-358.53000000000003,-0.00372723
-357.86,-0.00374249
-357.18,-0.00380353
-356.51,-0.00360516
-355.84,-0.00378827
-355.17,-0.00372723
-354.5,-0.0038493
-353.82,-0.0036662
-353.15,-0.00381879
-352.48,-0.00374249
-351.81,-0.00372723
-351.14,-0.00374249
-350.46000000000004,-0.00378827
-349.78999999999996,-0.00394086
-349.12,-0.00391034
-348.45,-0.00377301
-347.78000000000003,-0.00378827
-347.09999999999997,-0.0038493
-346.43,-0.00377301
-345.76,-0.00375775
-345.09,-0.00375775
-344.42,-0.00378827
-343.73999999999995,-0.00368146
-343.07,-0.0038493
-342.40000000000003,-0.00372723
-341.73,-0.00383405
-341.06,-0.00378827
-340.38,-0.00372723
-339.71,-0.00386456
-339.03999999999996,-0.00369672
-338.37,-0.00372723
-337.70000000000005,-0.00363568
-337.02,-0.00374249
-336.35,-0.00360516
-335.68,-0.00368146
-335.01,-0.00362042
-334.34000000000003,-0.0038493
-333.65999999999997,-0.00374249
-332.99,-0.00372723
-332.32,-0.00362042
-331.65,-0.00375775
-330.97999999999996,-0.00378827
-330.3,-0.00375775
-329.63,-0.00378827
-328.96,-0.00365094
-328.29,-0.00360516
-327.62,-0.00357465
-326.94,-0.0035899
-326.27000000000004,-0.00380353
-325.59999999999997,-0.0035899
-324.93,-0.00374249
-324.26,-0.00386456
-323.58,-0.00386456
-322.90999999999997,-0.00391034
-322.24,-0.00386456
-321.57,-0.00386456
-320.9,-0.00369672
-320.22,-0.00365094
-319.54999999999995,-0.00378827
-318.88,-0.00371198
-318.21000000000004,-0.00365094
-317.54,-0.00369672
-316.86,-0.00369672
-316.19,-0.00362042
-315.52,-0.00372723
-314.84999999999997,-0.00377301
-314.18,-0.00378827
-313.5,-0.00372723
-312.83,-0.00372723
-312.16,-0.00372723
-311.49,-0.00369672
-310.82,-0.00369672
-310.14,-0.00357465
-309.46999999999997,-0.00363568
-308.8,-0.00372723
-308.13,-0.00360516
-307.46000000000004,-0.00365094
-306.78,-0.00378827
-306.11,-0.00365094
-305.44,-0.00377301
-304.77,-0.00371198
-304.1,-0.00363568
-303.41999999999996,-0.00377301
-302.75,-0.00369672
-302.08,-0.00369672
-301.41,-0.00378827
-300.74,-0.00372723
-300.06,-0.00389508
-299.39,-0.00391034
-298.71999999999997,-0.00386456
-298.05,-0.00371198
-297.38,-0.00380353
-296.7,-0.00386456
-296.03000000000003,-0.00386456
-295.36,-0.00383405
-294.69,-0.00394086
-294.02,-0.00386456
-293.34,-0.00381879
-292.67,-0.00383405
-292.0,-0.0038493
-291.33,-0.00395612
-290.65999999999997,-0.00377301
-289.98,-0.00369672
-289.31,-0.00372723
-288.64,-0.00383405
-287.97,-0.00403241
-287.3,-0.00389508
-286.62,-0.00375775
-285.95,-0.00389508
-285.28,-0.0038493
-284.61,-0.00386456
-283.94,-0.00365094
-283.26,-0.00391034
-282.59,-0.00387982
-281.92,-0.00386456
-281.25,-0.00381879
-280.58,-0.00389508
-279.90000000000003,-0.00377301
-279.22999999999996,-0.0039256
-278.56,-0.0036662
-277.89,-0.00381879
-277.22,-0.00381879
-276.54,-0.00381879
-275.87,-0.00371198
-275.2,-0.00368146
-274.53,-0.00383405
-273.86,-0.0039256
-273.17999999999995,-0.00391034
-272.51,-0.00380353
-271.84000000000003,-0.00386456
-271.17,-0.0039256
-270.5,-0.00398663
-269.82,-0.00386456
-269.15,-0.00380353
-268.48,-0.0038493
-267.81,-0.00362042
-267.14000000000004,-0.00374249
-266.46,-0.00389508
-265.79,-0.00377301
-265.12,-0.00369672
-264.45,-0.00355939
-263.78000000000003,-0.00365094
-263.09999999999997,-0.00387982
-262.43,-0.00383405
-261.76,-0.00365094
-261.09000000000003,-0.00362042
-260.42,-0.0036662
-259.74,-0.00374249
-259.07,-0.0038493
-258.4,-0.00371198
-257.73,-0.00389508
-257.06,-0.00386456
-256.38,-0.00380353
-255.71000000000004,-0.00357465
-255.03999999999996,-0.00372723
-254.37,-0.0038493
-253.7,-0.0039256
-253.02,-0.00374249
-252.34999999999997,-0.00380353
-251.68,-0.0038493
-251.01000000000002,-0.00391034
-250.33999999999997,-0.00375775
-249.66000000000003,-0.00371198
-248.98999999999998,-0.00377301
-248.32,-0.00381879
-247.65000000000003,-0.00386456
-246.98,-0.00395612
-246.3,-0.00365094
-245.63,-0.00383405
-244.96,-0.00365094
-244.28999999999996,-0.00363568
-243.62,-0.00357465
-242.94000000000003,-0.00378827
-242.26999999999998,-0.00368146
-241.60000000000002,-0.00377301
-240.93,-0.00377301
-240.26,-0.00365094
-239.58,-0.00349835
-238.91,-0.00354413
-238.23999999999998,-0.00371198
-237.57000000000002,-0.00355939
-236.9,-0.00357465
-236.22,-0.0035899
-235.55,-0.00357465
-234.88,-0.00380353
-234.20999999999998,-0.00363568
-233.54000000000002,-0.00349835
-232.86,-0.0035899
-232.19,-0.00369672
-231.52,-0.00368146
-230.85,-0.00383405
-230.17999999999998,-0.00372723
-229.5,-0.00362042
-228.83,-0.00357465
-228.16,-0.00365094
-227.49,-0.00372723
-226.82,-0.00375775
-226.14,-0.0039256
-225.47,-0.00378827
-224.8,-0.00371198
-224.13,-0.00372723
-223.46,-0.00357465
-222.78,-0.00345258
-222.10999999999999,-0.00352887
-221.44,-0.0036662
-220.77,-0.00351361
-220.1,-0.00378827
-219.42000000000002,-0.00372723
-218.75,-0.00372723
-218.07999999999998,-0.00391034
-217.41,-0.00389508
-216.74,-0.0038493
-216.06,-0.00378827
-215.39000000000001,-0.00360516
-214.72,-0.0035899
-214.04999999999998,-0.0036662
-213.38,-0.00369672
-212.7,-0.0039256
-212.03,-0.00377301
-211.36,-0.00355939
-210.69,-0.00375775
-210.01999999999998,-0.00360516
-209.34,-0.00365094
-208.67,-0.00374249
-208.0,-0.00369672
-207.33,-0.00365094
-206.66,-0.00371198
-205.98,-0.00368146
-205.31,-0.00357465
-204.64,-0.0036662
-203.97,-0.00386456
-203.3,-0.00365094
-202.62,-0.00368146
-201.95,-0.00369672
-201.28,-0.00378827
-200.61,-0.0036662
-199.94,-0.0036662
-199.26000000000002,-0.00363568
-198.59,-0.00357465
-197.92,-0.00343732
-197.25,-0.00362042
-196.58,-0.00355939
-195.9,-0.00354413
-195.23000000000002,-0.00362042
-194.56,-0.00362042
-193.89,-0.00371198
-193.22,-0.00362042
-192.54,-0.00368146
-191.87,-0.00372723
-191.20000000000002,-0.00357465
-190.53,-0.00360516
-189.85999999999999,-0.0036662
-189.18,-0.00375775
-188.51,-0.0035899
-187.84,-0.0035899
-187.17000000000002,-0.0036662
-186.5,-0.00378827
-185.82,-0.00395612
-185.15,-0.00357465
-184.48,-0.00377301
-183.81,-0.0036662
-183.14000000000001,-0.00372723
-182.46,-0.00369672
-181.79,-0.00368146
-181.12,-0.00378827
-180.45,-0.00357465
-179.78,-0.00365094
-179.10000000000002,-0.00363568
-178.43,-0.00368146
-177.76,-0.0036662
-177.09,-0.00368146
-176.42,-0.00363568
-175.73999999999998,-0.00351361
-175.07000000000002,-0.00357465
-174.4,-0.00368146
-173.73,-0.00372723
-173.06,-0.0036662
-172.38,-0.00369672
-171.70999999999998,-0.00378827
-171.04000000000002,-0.00369672
-170.37,-0.00372723
-169.7,-0.00369672
-169.02,-0.00355939
-168.35,-0.00363568
-167.67999999999998,-0.00349835
-167.01000000000002,-0.00368146
-166.34,-0.00354413
-165.66,-0.00363568
-164.99,-0.00362042
-164.32,-0.00369672
-163.64999999999998,-0.0035899
-162.98000000000002,-0.00362042
-162.3,-0.00346783
-161.63,-0.00357465
-160.96,-0.00368146
-160.29,-0.00360516
-159.61999999999998,-0.00352887
-158.94,-0.00368146
-158.27,-0.00349835
-157.6,-0.00368146
-156.93,-0.00362042
-156.26,-0.00354413
-155.57999999999998,-0.00352887
-154.91,-0.00346783
-154.24,-0.00351361
-153.57,-0.00349835
-152.9,-0.00357465
-152.22,-0.00346783
-151.54999999999998,-0.00354413
-150.88000000000002,-0.00357465
-150.21,-0.00357465
-149.54,-0.00360516
-148.86,-0.00351361
-148.19,-0.00346783
-147.51999999999998,-0.00343732
-146.85000000000002,-0.0035899
-146.18,-0.00352887
-145.5,-0.00354413
-144.83,-0.00374249
-144.16,-0.00369672
-143.48999999999998,-0.00348309
-142.82000000000002,-0.00362042
-142.14000000000001,-0.00389508
-141.47,-0.00363568
-140.8,-0.00365094
-140.13,-0.00355939
-139.45999999999998,-0.00362042
-138.78,-0.00363568
-138.11,-0.00365094
-137.44,-0.00381879
-136.77,-0.00352887
-136.1,-0.00368146
-135.42,-0.00348309
-134.75,-0.00363568
-134.08,-0.00352887
-133.41,-0.00355939
-132.74,-0.00342206
-132.06,-0.0035899
-131.39,-0.00345258
-130.72,-0.00369672
-130.05,-0.00371198
-129.38,-0.00365094
-128.70000000000002,-0.00374249
-128.03,-0.00360516
-127.35999999999999,-0.00360516
-126.69,-0.00354413
-126.02000000000001,-0.00351361
-125.34000000000002,-0.00343732
-124.67,-0.00351361
-124.0,-0.00354413
-123.33,-0.0035899
-122.65999999999998,-0.00363568
-121.97999999999999,-0.0035899
-121.31000000000002,-0.00360516
-120.64,-0.00362042
-119.97,-0.00354413
-119.3,-0.00372723
-118.61999999999999,-0.0035899
-117.95,-0.00354413
-117.28,-0.00360516
-116.61,-0.00365094
-115.94,-0.00360516
-115.26,-0.00357465
-114.58999999999999,-0.00351361
-113.92,-0.00357465
-113.25,-0.00346783
-112.58,-0.00351361
-111.9,-0.00360516
-111.23,-0.00351361
-110.56,-0.0035899
-109.89,-0.00362042
-109.22,-0.0034068
-108.53999999999999,-0.00325421
-107.87,-0.00352887
-107.2,-0.0035899
-106.53,-0.00345258
-105.86,-0.0034068
-105.18,-0.00351361
-104.50999999999999,-0.00371198
-103.84,-0.00362042
-103.17,-0.00349835
-102.5,-0.00345258
-101.82000000000001,-0.00339154
-101.15,-0.00336102
-100.47999999999999,-0.00346783
-99.81,-0.00345258
-99.14,-0.00336102
-98.46,-0.00342206
-97.79200000000002,-0.00346783
-97.12,-0.0035899
-96.448,-0.00348309
-95.77600000000001,-0.00343732
-95.104,-0.00339154
-94.432,-0.00357465
-93.76,-0.00345258
-93.088,-0.0034068
-92.416,-0.00355939
-91.744,-0.00360516
-91.072,-0.00369672
-90.39999999999999,-0.00351361
-89.72799999999998,-0.00346783
-89.056,-0.00377301
-88.384,-0.00363568
-87.71200000000002,-0.00365094
-87.04,-0.00349835
-86.368,-0.0036662
-85.69600000000001,-0.00363568
-85.024,-0.00362042
-84.352,-0.00351361
-83.68,-0.00354413
-83.008,-0.00362042
-82.336,-0.00363568
-81.66399999999999,-0.00357465
-80.992,-0.00351361
-80.32,-0.00369672
-79.648,-0.00357465
-78.976,-0.00357465
-78.304,-0.00362042
-77.632,-0.0036662
-76.96000000000001,-0.00368146
-76.28800000000001,-0.00343732
-75.61600000000001,-0.0038493
-74.944,-0.0036662
-74.272,-0.00363568
-73.6,-0.00368146
-72.928,-0.00372723
-72.256,-0.00378827
-71.58399999999999,-0.00381879
-70.91199999999999,-0.00375775
-70.24,-0.0039256
-69.568,-0.00374249
-68.896,-0.00381879
-68.224,-0.00387982
-67.552,-0.00377301
-66.88000000000001,-0.00360516
-66.20800000000001,-0.0036662
-65.536,-0.00381879
-64.864,-0.00375775
-64.192,-0.0038493
-63.519999999999996,-0.00365094
-62.848,-0.00389508
-62.176,-0.0038493
-61.50399999999999,-0.00389508
-60.832,-0.00380353
-60.160000000000004,-0.00368146
-59.48800000000001,-0.00355939
-58.816,-0.0038493
-58.144,-0.0036662
-57.471999999999994,-0.00381879
-56.8,-0.00381879
-56.128,-0.0035899
-55.45600000000001,-0.00378827
-54.784,-0.00389508
-54.112,-0.00374249
-53.44,-0.00386456
-52.768,-0.00381879
-52.096000000000004,-0.00391034
-51.42399999999999,-0.00375775
-50.752,-0.00368146
-50.080000000000005,-0.00381879
-49.408,-0.00395612
-48.736000000000004,-0.00371198
-48.06399999999999,-0.00374249
-47.391999999999996,-0.00380353
-46.72,-0.00383405
-46.048,-0.00372723
-45.376000000000005,-0.00380353
-44.704,-0.00383405
-44.032,-0.00377301
-43.36,-0.00374249
-42.688,-0.0039256
-42.016000000000005,-0.0038493
-41.343999999999994,-0.00389508
-40.672000000000004,-0.00397137
-40.0,-0.00397137
-39.328,-0.00397137
-38.656,-0.00369672
-37.984,-0.00378827
-37.312,-0.00386456
-36.64,-0.00372723
-35.967999999999996,-0.00377301
-35.296,-0.00365094
-34.624,-0.00374249
-33.952,-0.00378827
-33.28,-0.00383405
-32.608000000000004,-0.00363568
-31.936,-0.0038493
-31.263999999999996,-0.00383405
-30.592,-0.00389508
-29.919999999999998,-0.0038493
-29.248000000000005,-0.00374249
-28.576,-0.00371198
-27.904,-0.0038493
-27.231999999999996,-0.00363568
-26.560000000000002,-0.00380353
-25.888,-0.0036662
-25.215999999999998,-0.0036662
-24.544,-0.00368146
-23.872,-0.00372723
-23.2,-0.00352887
-22.528000000000002,-0.00355939
-21.856,-0.00342206
-21.184,-0.00362042
-20.511999999999997,-0.00348309
-19.84,-0.00363568
-19.168000000000003,-0.00371198
-18.496,-0.00374249
-17.824,-0.0035899
-17.151999999999997,-0.00389508
-16.48,-0.0038493
-15.808,-0.00398663
-15.136,-0.0039256
-14.463999999999999,-0.0039256
-13.792,-0.00386456
-13.12,-0.00372723
-12.448,-0.00362042
-11.776,-0.0036662
-11.104000000000001,-0.00369672
-10.432,-0.00374249
-9.76,-0.00380353
-9.088,-0.00372723
-8.416,-0.00377301
-7.744,-0.00371198
-7.072000000000001,-0.00391034
-6.399999999999999,-0.0038493
-5.728,-0.00383405
-5.056,-0.00377301
-4.3839999999999995,-0.0038493
-3.7120000000000006,-0.00383405
-3.04,-0.0038493
-2.3680000000000003,-0.00386456
-1.6960000000000002,-0.00372723
-1.0239999999999996,-0.00387982
-0.3520000000000003,-0.00381879
0.32000000000000006,-0.00691632
0.992,-0.012424700000000002
1.6640000000000001,0.016231299999999997
2.336,0.0801808
3.008,0.10644100000000001
3.6799999999999997,0.12553
4.352,0.14207
5.023999999999999,0.157131
5.696,0.170803
6.368,0.183971
7.04,0.196438
7.712000000000001,0.208019
8.384,0.21946300000000002
9.056000000000001,0.23028200000000001
9.728,0.24106999999999998
10.399999999999999,0.251278
11.072000000000001,0.261181
11.744,0.270839
12.416,0.28033
13.088,0.289409
13.76,0.29844299999999996
14.432,0.307125
15.104000000000001,0.315761
15.776,0.324352
16.448,0.332592
17.119999999999997,0.340725
17.792,0.348659
18.464,0.356731
19.136,0.364223
19.808,0.371822
20.48,0.379177
21.151999999999997,0.38659299999999996
21.824,0.393856
22.496,0.40105799999999997
23.168000000000003,0.408046
23.84,0.414959
24.511999999999997,0.42176400000000003
25.184,0.42861499999999997
25.856,0.43516099999999996
26.528000000000002,0.441723
27.2,0.44817700000000005
27.872,0.45467700000000005
28.544,0.460949
29.215999999999998,0.467067
29.888,0.473217
30.560000000000002,0.479259
31.231999999999996,0.48540900000000003
31.904,0.491451
32.576,0.497158
33.248000000000005,0.503093
33.92,0.508678
34.592,0.514354
35.263999999999996,0.519939
35.936,0.5254479999999999
36.608000000000004,0.531292
37.28,0.536709
37.952,0.542141
38.624,0.5472520000000001
39.296,0.552501
39.967999999999996,0.55772
40.64,0.563045
41.312,0.568142
41.984,0.573024
42.656,0.5782430000000001
43.328,0.583233
44.0,0.588253
44.672000000000004,0.592846
45.343999999999994,0.597942
46.016000000000005,0.60252
46.688,0.6073109999999999
47.36,0.6120869999999999
48.032,0.616665
48.704,0.621166
49.376000000000005,0.625576
50.048,0.6302909999999999
50.72,0.634807
51.391999999999996,0.6395069999999999
52.06399999999999,0.643642
52.736000000000004,0.647884
53.408,0.652263
54.080000000000005,0.656505
54.752,0.660732
55.42399999999999,0.664928
56.096000000000004,0.669292
56.768,0.6735800000000001
57.44,0.677562
58.112,0.6816369999999999
58.784,0.68565
59.45600000000001,0.689693
60.128,0.693813
60.8,0.697887
61.471999999999994,0.461925
62.144,0.12099800000000001
62.816,0.0918538
63.48800000000001,0.07487080000000002
64.16,0.0637166
64.832,0.05559890000000001
65.50399999999999,0.0496022
66.176,0.0445821
66.848,0.0403096
67.52,0.036693300000000005
68.192,0.033626300000000005
68.864,0.0310323
69.536,0.0286061
70.20800000000001,0.0265157
70.88000000000001,0.02441
71.552,0.022960400000000002
72.224,0.0214193
72.896,0.019984900000000003
73.568,0.0188405
74.24,0.0176961
74.91199999999999,0.0165517
75.58399999999999,0.015437799999999998
76.256,0.0146138
76.928,0.013774600000000001
77.6,0.0129964
78.272,0.012325
78.944,0.011684100000000001
79.61600000000001,0.011150100000000001
80.28800000000001,0.010448200000000001
80.96000000000001,0.00997516
81.632,0.00934955
82.304,0.00886127
82.976,0.0084035
83.648,0.00802203
84.32,0.00754901
84.992,0.00725909
85.66399999999999,0.00686237
86.336,0.00657245
87.008,0.0062215
87.68,0.00577899
88.352,0.00551959
89.024,0.00504657
89.69600000000001,0.00469562
90.368,0.00460406
91.04,0.00463458
91.71200000000002,0.00425311
92.384,0.00411578
93.056,0.00378009
93.72799999999998,0.00361224
94.39999999999999,0.00339862
95.072,0.00315448
95.744,0.00291034
96.416,0.00275775
97.088,0.00260516
97.76,0.00233051
98.432,0.00228473
99.104,0.00210162
99.77600000000001,0.00202533
100.448,0.00175067
101.12,0.00184222
101.79200000000002,0.0016286
102.46,0.00146075
103.14,0.00132343
103.81,0.00121661
104.47999999999999,0.00114032
105.15,0.00101825
105.82000000000001,0.000697815
106.5,0.000789368
107.17,0.0006825560000000001
107.84,0.00046893300000000005
108.50999999999999,0.000438416
109.18,0.000362122
109.86,0.00020953400000000002
110.53,8.74634e-05
111.2,-4.08936e-06
111.87,-8.03833e-05
112.53999999999999,-3.46069e-05
113.22,-0.00014141799999999998
113.89,-0.00024823
114.56,-0.000385559
115.23,-0.000522888
115.9,-0.000507629
116.58,-0.000599182
117.25,-0.000690735
117.92,-0.000934875
118.58999999999999,-0.0006297
119.26,-0.0007212519999999999
119.94,-0.000736511
120.61,-0.000934875
121.28,-0.0009043580000000001
121.95,-0.0009959110000000001
122.61999999999999,-0.00131635
123.3,-0.00102643
123.97,-0.0011485
124.64,-0.00104169
125.31000000000002,-0.00125531
125.97999999999999,-0.00108746
126.65999999999998,-0.0013316
127.33,-0.00131635
128.0,-0.00134686
128.67000000000002,-0.00137738
129.34000000000003,-0.00157574
130.02,-0.00162152
130.69,-0.001591
131.35999999999999,-0.00157574
132.03,-0.00156049
132.70000000000002,-0.001591
133.38,-0.00163678
134.05,-0.00168256
134.72,-0.00174359
135.39,-0.0016673
136.06,-0.00180463
136.74,-0.00181989
137.41,-0.00180463
138.08,-0.00186566
138.75,-0.0018504
139.42,-0.00197247
140.1,-0.00200299
140.77,-0.0021098
141.44,-0.00214032
142.11,-0.0021861
142.78,-0.00223187
143.45999999999998,-0.00229291
144.13,-0.00223187
144.8,-0.00230817
145.47,-0.00226239
146.14000000000001,-0.00232343
146.82000000000002,-0.00232343
147.48999999999998,-0.00223187
148.16,-0.00233868
148.83,-0.00246075
149.5,-0.00227765
150.18,-0.00226239
150.85000000000002,-0.00235394
151.51999999999998,-0.00239972
152.19,-0.00241498
152.86,-0.0023692
153.54,-0.00241498
154.21,-0.0023692
154.88000000000002,-0.00243024
155.54999999999998,-0.00247601
156.22,-0.00239972
156.9,-0.00227765
157.57,-0.00239972
158.24,-0.00233868
158.91,-0.00227765
159.57999999999998,-0.00243024
160.26,-0.00255231
160.93,-0.0027049
161.6,-0.00252179
162.27,-0.00250653
162.94,-0.0023692
163.61999999999998,-0.00247601
164.29,-0.00235394
164.96,-0.00246075
165.63,-0.00258282
166.3,-0.00258282
166.98000000000002,-0.00258282
167.64999999999998,-0.00275067
168.32,-0.00272015
168.99,-0.00279645
169.66,-0.00276593
170.34,-0.00261334
171.01000000000002,-0.00258282
171.67999999999998,-0.00275067
172.35,-0.00275067
173.02,-0.00287274
173.7,-0.00275067
174.37,-0.00275067
175.04000000000002,-0.00279645
175.70999999999998,-0.00273541
176.38,-0.0026286
177.06,-0.00253705
177.73,-0.00281171
178.4,-0.00265912
179.07000000000002,-0.00265912
179.73999999999998,-0.00268964
180.42,-0.00261334
181.09,-0.0027049
181.76,-0.00273541
182.43,-0.00272015
183.10000000000002,-0.00281171
183.78,-0.00278119
184.45,-0.00301007
185.12,-0.00285748
185.79,-0.00287274
186.46,-0.00290326
187.14000000000001,-0.00282697
187.81,-0.00281171
188.48,-0.00278119
189.15,-0.00293378
189.82,-0.00291852
190.5,-0.00290326
191.17000000000002,-0.00284222
191.84,-0.00290326
192.51,-0.00293378
193.18,-0.002888
193.85999999999999,-0.00290326
194.53,-0.002888
195.20000000000002,-0.00293378
195.87,-0.00296429
196.54,-0.00296429
197.22,-0.00302533
197.89,-0.00307111
198.56,-0.00302533
199.23000000000002,-0.00296429
199.9,-0.00299481
200.58,-0.00293378
201.25,-0.00304059
201.92,-0.00290326
202.59,-0.00297955
203.26000000000002,-0.00293378
203.94,-0.00310162
204.61,-0.00313214
205.28,-0.00287274
205.95,-0.00302533
206.62,-0.00294904
207.3,-0.00301007
207.97,-0.00304059
208.64,-0.00310162
209.31,-0.00317792
209.98,-0.00310162
210.66,-0.00307111
211.33,-0.00307111
212.0,-0.00307111
212.67,-0.00319318
213.34,-0.00310162
214.01999999999998,-0.00308636
214.69,-0.00317792
215.36,-0.00326947
216.03,-0.00310162
216.7,-0.00291852
217.38,-0.00291852
218.04999999999998,-0.00308636
218.72,-0.00311688
219.39000000000001,-0.00313214
220.06,-0.00310162
220.74,-0.00310162
221.41,-0.00305585
222.07999999999998,-0.0031474
222.75,-0.00311688
223.42000000000002,-0.00316266
224.1,-0.00311688
224.77,-0.00323895
225.44,-0.00339154
226.10999999999999,-0.00343732
226.78,-0.00342206
227.46,-0.00329999
228.13,-0.00328473
228.8,-0.00333051
229.47,-0.00329999
230.14,-0.00326947
230.82,-0.00326947
231.49,-0.00323895
232.16,-0.00317792
232.83,-0.00322369
233.5,-0.00317792
234.17999999999998,-0.00323895
234.85,-0.00326947
235.52,-0.00333051
236.19,-0.00334576
236.86,-0.0034068
237.54000000000002,-0.00326947
238.20999999999998,-0.00336102
238.88,-0.00334576
239.55,-0.00334576
240.22,-0.00317792
240.9,-0.00331525
241.57000000000002,-0.00328473
242.23999999999998,-0.00322369
242.91,-0.00329999
243.58,-0.00334576
244.26,-0.00339154
244.93,-0.00317792
245.60000000000002,-0.00325421
246.26999999999998,-0.00329999
246.94000000000003,-0.00329999
247.62,-0.00339154
248.28999999999996,-0.00337628
248.96,-0.00325421
249.63,-0.00322369
250.3,-0.00319318
250.98,-0.00339154
251.65000000000003,-0.00317792
252.32,-0.00325421
252.98999999999998,-0.00328473
253.66000000000003,-0.0034068
254.33999999999997,-0.00342206
255.01000000000002,-0.00345258
255.68,-0.00326947
256.34999999999997,-0.00333051
257.02,-0.00329999
257.7,-0.00331525
258.37,-0.00339154
259.03999999999996,-0.00342206
259.71000000000004,-0.00334576
260.38,-0.00336102
261.06,-0.00328473
261.73,-0.00331525
262.4,-0.00325421
263.07,-0.00337628
263.74,-0.00346783
264.42,-0.00336102
265.09000000000003,-0.00316266
265.76,-0.00331525
266.43,-0.00333051
267.09999999999997,-0.00337628
267.78000000000003,-0.00329999
268.45,-0.00348309
269.12,-0.00334576
269.79,-0.0034068
270.46,-0.00351361
271.14000000000004,-0.00346783
271.81,-0.00345258
272.48,-0.00326947
273.15,-0.00346783
273.82,-0.00345258
274.5,-0.00343732
275.17,-0.00328473
275.84000000000003,-0.00337628
276.51,-0.00320844
277.17999999999995,-0.00339154
277.86,-0.0034068
278.53,-0.00343732
279.2,-0.00337628
279.87,-0.00348309
280.54,-0.00355939
281.22,-0.00333051
281.89,-0.00357465
282.56,-0.00345258
283.22999999999996,-0.00328473
283.90000000000003,-0.00329999
284.58,-0.00343732
285.25,-0.00336102
285.92,-0.00337628
286.59,-0.00329999
287.26,-0.00334576
287.94,-0.00343732
288.61,-0.0035899
289.28,-0.00345258
289.95,-0.00337628
290.62,-0.00336102
291.3,-0.00339154
291.97,-0.00323895
292.64,-0.00331525
293.31,-0.00345258
293.98,-0.00334576
294.65999999999997,-0.00343732
295.33,-0.00339154
296.0,-0.00349835
296.67,-0.00345258
297.34,-0.00354413
298.02,-0.00349835
298.69,-0.00342206
299.36,-0.00343732
300.03000000000003,-0.00342206
300.7,-0.00342206
301.38,-0.00357465
302.05,-0.00346783
302.71999999999997,-0.00352887
303.39,-0.00355939
304.06,-0.00343732
304.74,-0.00346783
305.41,-0.00349835
306.08,-0.00346783
306.75,-0.00336102
307.41999999999996,-0.00343732
308.1,-0.0034068
308.77,-0.00346783
309.44,-0.00343732
310.11,-0.00351361
310.78,-0.00331525
311.46000000000004,-0.00352887
312.13,-0.00334576
312.8,-0.00336102
313.46999999999997,-0.00334576
314.14,-0.0034068
314.82,-0.00346783
315.49,-0.00343732
316.16,-0.00342206
316.83,-0.00345258
317.5,-0.0034068
318.18,-0.00337628
318.84999999999997,-0.00333051
319.52,-0.00343732
320.19,-0.00354413
320.86,-0.00349835
321.54,-0.0034068
322.21000000000004,-0.00329999
322.88,-0.0034068
323.54999999999995,-0.00345258
324.22,-0.00348309
324.9,-0.00345258
325.57,-0.00334576
326.24,-0.00342206
326.90999999999997,-0.00339154
327.58,-0.00362042
328.26,-0.00362042
328.93,-0.0034068
329.59999999999997,-0.0036662
330.27000000000004,-0.00368146
330.94,-0.0036662
331.62,-0.00360516
332.29,-0.00365094
332.96,-0.00345258
333.63,-0.00342206
334.3,-0.0034068
334.97999999999996,-0.00333051
335.65,-0.00346783
336.32,-0.00343732
336.99,-0.00339154
337.65999999999997,-0.00345258
338.34000000000003,-0.00362042
339.01,-0.00339154
339.68,-0.00351361
340.35,-0.00329999
341.02,-0.0034068
341.70000000000005,-0.00342206
342.37,-0.00348309
343.03999999999996,-0.00348309
343.71,-0.0034068
344.38,-0.00334576
345.06,-0.00343732
345.73,-0.00333051
346.40000000000003,-0.00339154
347.07,-0.00342206
347.73999999999995,-0.00343732
348.42,-0.00349835
349.09,-0.00355939
349.76,-0.00351361
350.43,-0.00351361
351.09999999999997,-0.00336102
351.78000000000003,-0.0034068
352.45,-0.00354413
353.12,-0.00352887
353.78999999999996,-0.00365094
354.46000000000004,-0.00354413
355.14,-0.00349835
355.81,-0.00360516
356.48,-0.00357465
357.15,-0.00355939
357.82,-0.0034068
358.5,-0.00360516
359.17,-0.00357465
359.84,-0.00352887
360.51,-0.00351361
361.18,-0.00346783
361.86,-0.0035899
362.53000000000003,-0.0035899
363.2,-0.00351361
363.86999999999995,-0.00355939
364.54,-0.00360516
365.21999999999997,-0.0036662
365.89,-0.0035899
366.56,-0.0035899
367.23,-0.00336102
367.9,-0.00348309
368.58,-0.00360516
369.25,-0.00374249
369.92,-0.00351361
370.59000000000003,-0.00351361
371.26,-0.00352887
371.94,-0.00368146
372.61,-0.00352887
373.28,-0.0034068
373.95,-0.00348309
374.62,-0.00345258
375.3,-0.0034068
375.97,-0.00352887
376.64,-0.00357465
377.31,-0.00348309
377.97999999999996,-0.00349835
378.66,-0.0035899
379.33,-0.00360516
380.0,-0.00365094
380.67,-0.0035899
381.34,-0.0034068
382.02000000000004,-0.00345258
382.69,-0.00345258
383.36,-0.00342206
384.03,-0.0034068
384.7,-0.00354413
385.38,-0.00355939
386.05,-0.00354413
386.72,-0.00357465
387.39,-0.00352887
388.05999999999995,-0.00355939
388.74,-0.0036662
389.40999999999997,-0.00360516
390.08,-0.00363568
390.75,-0.0036662
391.42,-0.00360516
392.1,-0.00377301
392.77,-0.00351361
393.44,-0.00349835
394.10999999999996,-0.00357465
394.78000000000003,-0.00355939
395.46,-0.00371198
396.13,-0.00365094
396.8,-0.00362042
397.46999999999997,-0.00363568
398.14,-0.00354413
398.82,-0.00357465
399.49,-0.00354413
400.15999999999997,-0.00363568
400.83,-0.00365094
401.5,-0.00357465
402.18,-0.00365094
402.85,-0.00349835
403.52,-0.0035899
404.19,-0.00342206
404.86,-0.00337628
405.53999999999996,-0.00329999
406.21,-0.00345258
406.88,-0.00355939
407.55,-0.00355939
408.21999999999997,-0.0035899
408.90000000000003,-0.00348309
409.57,-0.00349835
410.24,-0.00336102
410.91,-0.00352887
411.58,-0.00331525
412.26,-0.00342206
412.93,-0.00339154
413.59999999999997,-0.00351361
414.27,-0.00349835
414.94,-0.00357465
415.62,-0.00352887
416.29,-0.00355939
416.96000000000004,-0.0035899
417.63,-0.0036662
418.29999999999995,-0.00383405
418.98,-0.00372723
419.65,-0.0035899
420.32,-0.00351361
420.99,-0.00334576
421.65999999999997,-0.00352887
422.34000000000003,-0.00331525
423.01,-0.00339154
423.68,-0.00334576
424.34999999999997,-0.00343732
425.02000000000004,-0.00325421
425.7,-0.00333051
426.37,-0.00343732
427.04,-0.00351361
427.71,-0.00352887
428.38,-0.00360516
429.06,-0.00342206
429.73,-0.00357465
430.4,-0.00343732
431.07,-0.00345258
431.74,-0.00352887
432.42,-0.00348309
433.09000000000003,-0.00349835
433.76,-0.00363568
434.42999999999995,-0.00363568
435.1,-0.0035899
435.78,-0.00352887
436.45,-0.00362042
437.12,-0.00355939
437.78999999999996,-0.00349835
438.46,-0.00348309
439.14,-0.00354413
439.81,-0.00342206
440.47999999999996,-0.00346783
441.15000000000003,-0.00354413
441.82,-0.00329999
442.5,-0.00349835
443.17,-0.00346783
443.84,-0.00357465
444.51,-0.00342206
445.18,-0.00348309
445.86,-0.00346783
446.53,-0.00345258
447.2,-0.00342206
447.87,-0.00342206
448.53999999999996,-0.00351361
449.22,-0.00346783
449.89,-0.00357465
450.56,-0.00345258
451.23,-0.00352887
451.9,-0.00348309
452.58000000000004,-0.00354413
453.25,-0.00362042
453.92,-0.00348309
454.59,-0.00372723
455.26,-0.00372723
455.94,-0.0035899
456.61,-0.00368146
457.28000000000003,-0.00362042
457.95,-0.00360516
458.61999999999995,-0.00349835
459.3,-0.00363568
459.96999999999997,-0.00362042
460.64,-0.00355939
461.31,-0.00357465
461.98,-0.00346783
462.66,-0.00357465
463.33,-0.00357465
464.0,-0.00346783
464.66999999999996,-0.00354413
465.34000000000003,-0.0035899
466.02,-0.00354413
466.69,-0.00357465
467.36,-0.00354413
468.03,-0.00357465
468.7,-0.00345258
469.38,-0.00355939
470.05,-0.00351361
470.71999999999997,-0.00362042
471.39,-0.00343732
472.06,-0.00348309
472.74,-0.00351361
473.41,-0.00352887
474.08,-0.00357465
474.75,-0.00354413
475.42,-0.00346783
476.09999999999997,-0.00331525
476.77,-0.00342206
477.44,-0.0035899
478.11,-0.00351361
478.78,-0.00333051
479.46000000000004,-0.00346783
480.13,-0.00345258
480.8,-0.00346783
481.47,-0.00355939
482.14,-0.00365094
482.82,-0.00343732
483.49,-0.0034068
484.15999999999997,-0.00348309
484.83,-0.00346783
485.5,-0.00354413
486.18,-0.0034068
486.85,-0.0035899
487.52000000000004,-0.00357465
488.19,-0.0035899
488.85999999999996,-0.00355939
489.54,-0.00365094
490.21,-0.00345258
490.88,-0.00342206
491.54999999999995,-0.00352887
492.21999999999997,-0.00357465
492.9,-0.00355939
493.57,-0.00368146
494.24,-0.00339154
494.91,-0.00355939
495.58,-0.00352887
496.25999999999993,-0.00336102
496.93,-0.00354413
497.6,-0.00351361
498.27000000000004,-0.00343732
498.93999999999994,-0.00351361
499.62000000000006,-0.00328473
500.28999999999996,-0.00349835
500.96,-0.00372723
501.63000000000005,-0.00372723
502.29999999999995,-0.00368146
502.98,-0.00357465
503.65,-0.00362042
504.32,-0.00352887
504.99,-0.00352887
505.65999999999997,-0.00355939
506.34000000000003,-0.00368146
507.01,-0.00369672
507.68,-0.00352887
508.35,-0.00351361
509.0199999999999,-0.00362042
509.70000000000005,-0.00360516
510.36999999999995,-0.00345258
511.03999999999996,-0.00349835
511.71000000000004,-0.00360516
512.3799999999999,-0.00355939
513.06,-0.00368146
513.73,-0.00348309
514.4,-0.00357465
515.07,-0.00363568
515.74,-0.00363568
516.4200000000001,-0.00348309
517.0899999999999,-0.00363568
517.76,-0.00368146
518.4300000000001,-0.00351361
519.1,-0.00348309
519.78,-0.00355939
520.45,-0.00351361
521.12,-0.00372723
521.79,-0.00355939
522.46,-0.00360516
523.14,-0.00351361
523.8100000000001,-0.00362042
524.48,-0.0035899
525.15,-0.00362042
525.82,-0.00346783
526.5,-0.00365094
527.1700000000001,-0.00339154
527.8399999999999,-0.00357465
528.51,-0.00345258
529.1800000000001,-0.00354413
529.86,-0.00345258
530.5300000000001,-0.00352887
531.1999999999999,-0.00343732
531.87,-0.00355939
532.5400000000001,-0.0035899
533.22,-0.00348309
533.89,-0.00363568
534.56,-0.00365094
535.23,-0.00362042
535.9,-0.0035899
536.58,-0.00354413
537.25,-0.00363568
537.92,-0.0035899
538.59,-0.00363568
539.26,-0.00351361
539.9399999999999,-0.00343732
540.61,-0.00351361
541.28,-0.00371198
541.9499999999999,-0.00372723
542.62,-0.00352887
543.3,-0.00354413
543.97,-0.00352887
544.6400000000001,-0.00369672
545.31,-0.00355939
545.98,-0.00345258
546.66,-0.00349835
547.33,-0.00349835
548.0,-0.0034068
548.67,-0.00346783
549.34,-0.00354413
550.02,-0.00351361
550.69,-0.00368146
551.36,-0.00369672
552.03,-0.00371198
552.7,-0.00380353
553.38,-0.00363568
554.05,-0.0036662
554.72,-0.00371198
555.39,-0.00360516
556.06,-0.00362042
556.74,-0.00375775
557.41,-0.00369672
558.08,-0.00363568
558.75,-0.00360516
559.42,-0.00363568
560.0999999999999,-0.00362042
560.77,-0.00346783
561.44,-0.00348309
562.1099999999999,-0.00357465
562.78,-0.00352887
563.4599999999999,-0.00357465
564.13,-0.00362042
564.8000000000001,-0.0035899
565.47,-0.00351361
566.14,-0.00345258
566.8199999999999,-0.00362042
567.49,-0.00348309
568.16,-0.00354413
568.83,-0.00351361
569.5,-0.00354413
570.1800000000001,-0.00365094
570.85,-0.00372723
571.52,-0.00371198
572.19,-0.00357465
572.86,-0.0036662
573.5400000000001,-0.00363568
574.2099999999999,-0.00371198
574.88,-0.00355939
575.5500000000001,-0.00374249
576.2199999999999,-0.00360516
576.9000000000001,-0.00357465
577.5699999999999,-0.00349835
578.24,-0.00362042
578.9100000000001,-0.00357465
579.5799999999999,-0.00352887
580.26,-0.0036662
580.93,-0.00363568
581.6,-0.00377301
582.27,-0.00352887
582.9399999999999,-0.00352887
583.62,-0.00372723
584.29,-0.00362042
584.96,-0.00345258
585.63,-0.00355939
586.3000000000001,-0.00339154
586.98,-0.0034068
587.65,-0.00339154
588.3199999999999,-0.00354413
588.99,-0.00352887
589.6600000000001,-0.00349835
590.34,-0.00351361
591.01,-0.0034068
591.68,-0.00355939
592.35,-0.00360516
593.0200000000001,-0.00360516
593.7,-0.00354413
594.37,-0.00352887
595.04,-0.0036662
595.71,-0.00351361
596.38,-0.00355939
597.0600000000001,-0.00345258
597.73,-0.0034068
598.4,-0.00348309
599.07,-0.00360516
599.74,-0.00343732
600.42,-0.00351361
601.09,-0.00357465
601.76,-0.00363568
602.43,-0.00357465
603.1,-0.00357465
603.78,-0.00374249
604.45,-0.00368146
605.12,-0.00363568
605.79,-0.00369672
606.46,-0.00381879
607.14,-0.00372723
607.8100000000001,-0.0036662
608.4799999999999,-0.00365094
609.15,-0.00377301
609.82,-0.00365094
610.5,-0.00368146
611.1700000000001,-0.00365094
611.8399999999999,-0.00355939
612.51,-0.0035899
613.1800000000001,-0.00352887
613.86,-0.0035899
614.53,-0.00351361
615.2,-0.00354413
615.87,-0.00351361
616.54,-0.0035899
617.22,-0.00362042
617.89,-0.00363568
618.5600000000001,-0.00357465
619.23,-0.00368146
619.9,-0.00354413
620.5799999999999,-0.00346783
621.25,-0.0035899
621.9200000000001,-0.00352887
622.5899999999999,-0.00357465
623.26,-0.00369672
623.9399999999999,-0.00360516
624.61,-0.00355939
625.2800000000001,-0.00351361
625.9499999999999,-0.00352887
626.62,-0.00342206
627.3,-0.00362042
627.97,-0.00351361
628.64,-0.00351361
629.31,-0.00348309
629.98,-0.00345258
630.66,-0.00360516
631.33,-0.00337628
632.0,-0.00336102
632.67,-0.0034068
633.34,-0.00349835
634.02,-0.00360516
634.6899999999999,-0.00339154
635.36,-0.00334576
636.0300000000001,-0.00345258
636.6999999999999,-0.00362042
637.38,-0.00365094
638.05,-0.00369672
638.72,-0.00363568
639.3900000000001,-0.00362042
640.06,-0.00371198
640.7399999999999,-0.00368146
641.41,-0.00362042
642.08,-0.00372723
642.75,-0.00372723
643.42,-0.00357465
644.1,-0.00351361
644.77,-0.00357465
645.44,-0.00349835
646.11,-0.00357465
646.78,-0.00362042
647.46,-0.00355939
648.13,-0.00368146
648.8,-0.00368146
649.47,-0.0036662
650.14,-0.00371198
650.82,-0.00360516
651.49,-0.00343732
652.16,-0.00343732
652.83,-0.00352887
653.5,-0.00365094
654.1800000000001,-0.00355939
654.8499999999999,-0.00357465
655.52,-0.0035899
656.19,-0.00363568
656.8599999999999,-0.00368146
657.5400000000001,-0.00345258
658.2099999999999,-0.00365094
658.88,-0.00357465
659.5500000000001,-0.00346783
660.22,-0.00362042
660.9,-0.00362042
661.5699999999999,-0.00349835
662.24,-0.00355939
662.91,-0.00354413
663.58,-0.00348309
664.26,-0.00365094
664.9300000000001,-0.00375775
665.6,-0.00360516
666.27,-0.00357465
666.94,-0.0035899
667.62,-0.00351361
668.2900000000001,-0.00348309
668.9599999999999,-0.00354413
669.63,-0.0036662
670.3000000000001,-0.00352887
670.98,-0.00362042
671.6500000000001,-0.00349835
672.3199999999999,-0.00360516
672.99,-0.00357465
673.6600000000001,-0.00365094
674.34,-0.00357465
675.01,-0.00368146
675.68,-0.0036662
676.35,-0.00378827
677.02,-0.00360516
677.7,-0.00375775
678.37,-0.0035899
679.04,-0.00375775
679.71,-0.00365094
680.38,-0.00374249
681.06,-0.00357465
681.73,-0.00363568
682.4,-0.00378827
683.0699999999999,-0.00374249
683.74,-0.00368146
684.42,-0.00371198
685.09,-0.00357465
685.7600000000001,-0.00371198
686.43,-0.00363568
687.1,-0.00395612
687.78,-0.0038493
688.45,-0.00394086
689.12,-0.00397137
689.79,-0.00391034
690.46,-0.00377301
691.14,-0.0039256
691.8100000000001,-0.00371198
692.48,-0.00380353
693.15,-0.0036662
693.82,-0.00380353
694.5,-0.00378827
695.17,-0.00371198
695.84,-0.00369672
696.51,-0.00374249
697.18,-0.0036662
697.86,-0.00354413
698.53,-0.00375775
699.2,-0.00374249
699.87,-0.00368146
700.54,-0.00362042
701.2199999999999,-0.00372723
701.89,-0.00375775
702.5600000000001,-0.00365094
703.2299999999999,-0.00354413
703.9,-0.00362042
704.5799999999999,-0.00362042
705.25,-0.00362042
705.9200000000001,-0.00375775
706.5899999999999,-0.00371198
707.26,-0.0035899
707.9399999999999,-0.00360516
708.61,-0.00365094
709.28,-0.00349835
709.95,-0.00371198
710.62,-0.00365094
711.3,-0.00354413
711.97,-0.00362042
712.64,-0.00362042
713.3100000000001,-0.00360516
713.98,-0.00354413
714.6600000000001,-0.00365094
715.3299999999999,-0.0036662
716.0,-0.00360516
716.6700000000001,-0.00357465
717.3399999999999,-0.00369672
718.0200000000001,-0.0035899
718.6899999999999,-0.00369672
719.36,-0.0035899
720.0300000000001,-0.00363568
720.6999999999999,-0.00362042
721.38,-0.00357465
722.05,-0.0035899
722.72,-0.00362042
723.39,-0.00355939
724.06,-0.00371198
724.74,-0.00360516
725.41,-0.00371198
726.08,-0.0035899
726.75,-0.00349835
727.42,-0.00352887
728.1,-0.0036662
728.77,-0.00363568
729.4399999999999,-0.0035899
730.11,-0.00397137
730.7800000000001,-0.00374249
731.46,-0.00404767
732.13,-0.00386456
732.8,-0.00371198
733.47,-0.00389508
734.1400000000001,-0.00374249
734.82,-0.00368146
735.49,-0.00368146
736.16,-0.00378827
736.83,-0.00380353
737.5,-0.00362042
738.1800000000001,-0.0036662
738.85,-0.00365094
739.52,-0.00391034
740.19,-0.00371198
740.86,-0.00369672
741.54,-0.00377301
742.21,-0.00365094
742.88,-0.00378827
743.55,-0.00372723
744.22,-0.00383405
744.9,-0.00386456
745.57,-0.00377301
746.24,-0.0036662
746.91,-0.00369672
747.58,-0.00386456
748.26,-0.00378827
748.9300000000001,-0.0039256
749.5999999999999,-0.00377301
750.27,-0.00380353
750.94,-0.00378827
751.62,-0.0036662
752.2900000000001,-0.00378827
752.9599999999999,-0.00391034
753.63,-0.00368146
754.3000000000001,-0.00381879
754.98,-0.00378827
755.65,-0.00380353
756.3199999999999,-0.00372723
756.99,-0.00383405
757.66,-0.00377301
758.34,-0.00363568
759.01,-0.00377301
759.6800000000001,-0.00365094
760.35,-0.00372723
761.02,-0.00381879
761.6999999999999,-0.00368146
762.37,-0.0035899
763.0400000000001,-0.00375775
763.7099999999999,-0.00381879
764.38,-0.00389508
765.06,-0.00378827
765.73,-0.00389508
766.4000000000001,-0.00368146
767.0699999999999,-0.00360516
767.74,-0.00380353
768.42,-0.00360516
769.09,-0.00368146
769.76,-0.00378827
770.43,-0.00387982
771.1,-0.00383405
771.78,-0.00386456
772.45,-0.00391034
773.12,-0.00381879
773.79,-0.00375775
774.46,-0.00375775
775.14,-0.0036662
775.81,-0.00372723
776.48,-0.00389508
777.15,-0.00362042
777.8199999999999,-0.00365094
778.5,-0.00374249
779.17,-0.00381879
779.84,-0.00368146
780.5100000000001,-0.00383405
781.18,-0.00381879
781.8599999999999,-0.00378827
782.53,-0.00381879
783.2,-0.00391034
783.87,-0.00377301
784.54,-0.00386456
785.22,-0.00375775
785.89,-0.0038493
786.5600000000001,-0.00378827
787.23,-0.00389508
787.9,-0.00383405
788.58,-0.00395612
789.25,-0.00378827
789.92,-0.00380353
790.59,-0.00383405
791.26,-0.0038493
791.94,-0.00368146
792.61,-0.00381879
793.28,-0.0038493
793.95,-0.00371198
794.62,-0.00371198
795.3000000000001,-0.00368146
795.9699999999999,-0.0038493
796.64,-0.00368146
797.3100000000001,-0.00378827
797.9799999999999,-0.00360516
798.6600000000001,-0.0036662
799.3299999999999,-0.00386456
800.0,-0.00371198
800.6700000000001,-0.00377301
801.3399999999999,-0.0038493
802.02,-0.0038493
802.6899999999999,-0.0036662
803.36,-0.00372723
804.03,-0.00368146
804.7,-0.00368146
805.38,-0.00357465
806.05,-0.00352887
806.72,-0.00369672
807.39,-0.0036662
808.0600000000001,-0.00380353
808.74,-0.00369672
809.4100000000001,-0.00381879
810.0799999999999,-0.0036662
810.75,-0.0036662
811.4200000000001,-0.00377301
812.1,-0.00391034
812.7700000000001,-0.00386456
813.4399999999999,-0.00365094
814.11,-0.00369672
814.7800000000001,-0.0038493
815.46,-0.00369672
816.13,-0.00381879
816.8,-0.00378827
817.47,-0.00368146
818.14,-0.00363568
818.82,-0.00374249
819.49,-0.00374249
820.16,-0.00375775
820.83,-0.00365094
821.5,-0.00351361
822.18,-0.00365094
822.85,-0.00374249
823.52,-0.00352887
824.1899999999999,-0.00357465
824.86,-0.00348309
825.54,-0.00368146
826.21,-0.00371198
826.88,-0.00372723
827.55,-0.00368146
828.22,-0.00354413
828.9,-0.00357465
829.57,-0.00354413
830.24,-0.0035899
830.91,-0.00357465
831.58,-0.00357465
832.26,-0.00365094
832.9300000000001,-0.00371198
833.6,-0.00371198
834.27,-0.00377301
